File: degradation_testing/tensile_testing/Resin/Resin_IPA/Resin_IPA_3.csv
"1 _ 1",,
"Time","Force","Stroke"
"sec","N","mm"
"0","0.7192294","0.0001"
"0.02","0.7255872","0.006166667"
"0.04","1.002153","0.01583333"
"0.06","3.139973","0.0259"
"0.08","8.516312","0.0362"
"0.1","15.21587","0.04626667"
"0.12","21.81689","0.05643333"
"0.14","28.18187","0.06653333"
"0.16","34.31797","0.0767"
"0.18","39.61484","0.08683334"
"0.2","42.08724","0.0968"
"0.22","42.28274","0.1065333"
"0.24","42.71587","0.1165333"
"0.26","42.82236","0.1263333"
"0.28","42.76832","0.1365"
"0.3","42.78739","0.1466333"
"0.32","42.84541","0.1568"
"0.34","42.86925","0.1668333"
"0.36","42.90104","0.1768667"
"0.38","42.92011","0.1867333"
"0.4","42.9368","0.1965"
"0.42","42.94236","0.2063"
"0.44","42.97256","0.2165333"
"0.46","42.96303","0.2266667"
"0.48","42.97177","0.2366667"
"0.5","42.97416","0.2467333"
"0.52","42.97892","0.2567333"
"0.54","42.95428","0.2666333"
"0.56","42.92567","0.2763"
"0.58","42.9225","0.2863333"
"0.6","42.9225","0.2963667"
"0.62","42.93362","0.3066"
"0.64","42.96939","0.3166"
"0.66","42.99164","0.3268333"
"0.68","43.01151","0.3369333"
"0.7","43.04568","0.3467333"
"0.72","43.07032","0.3564667"
"0.74","43.07508","0.3666"
"0.76","43.07508","0.3764333"
"0.78","43.07906","0.3865"
"0.8","43.11641","0.3967667"
"0.82","43.21337","0.4068667"
"0.84","43.24834","0.4169"
"0.86","43.26184","0.4267667"
"0.88","43.29284","0.4367333"
"0.9","43.7506","0.4464667"
"0.92","46.01955","0.4562667"
"0.94","50.59481","0.4664333"
"0.96","55.33139","0.4767"
"0.98","59.03482","0.4867667"
"1","61.81002","0.4968"
"1.02","63.85406","0.5068333"
"1.04","65.69544","0.5166667"
"1.06","68.53819","0.5264333"
"1.08","73.42895","0.5365334"
"1.1","79.13271","0.5464333"
"1.12","85.1051","0.5566"
"1.14","91.0457","0.5666"
"1.16","97.0014","0.5767667"
"1.18","102.6471","0.5868667"
"1.2","108.157","0.5967667"
"1.22","113.7217","0.6065"
"1.24","118.9979","0.6166"
"1.26","124.0786","0.6262333"
"1.28","129.3643","0.6364334"
"1.3","134.5452","0.6465334"
"1.32","139.7641","0.6567333"
"1.34","145.0372","0.6667667"
"1.36","150.1799","0.6767333"
"1.38","155.2407","0.6866333"
"1.4","160.1768","0.6965"
"1.42","164.8204","0.7063333"
"1.44","169.2796","0.7164667"
"1.46","173.5616","0.7267"
"1.48","177.7172","0.7367667"
"1.5","181.8037","0.7468333"
"1.52","185.7543","0.7568333"
"1.54","189.542","0.7666333"
"1.56","193.1667","0.7764333"
"1.58","196.6071","0.7864"
"1.6","199.9267","0.7964"
"1.62","203.2232","0.8066334"
"1.64","206.519","0.8166667"
"1.66","209.8314","0.8267667"
"1.68","213.0334","0.8368667"
"1.7","216.1066","0.8466667"
"1.72","219.1011","0.8565"
"1.74","221.9613","0.8666"
"1.76","224.7635","0.8763667"
"1.78","227.584","0.8863333"
"1.8","230.3656","0.8966"
"1.82","233.1615","0.9067"
"1.84","236.0288","0.9168"
"1.86","238.7706","0.9267"
"1.88","241.46","0.9366333"
"1.9","244.0747","0.9465333"
"1.92","246.5757","0.9563333"
"1.94","248.9932","0.9665"
"1.96","251.3941","0.9767"
"1.98","253.8212","0.9868"
"2","256.2745","0.9968"
"2.02","258.6889","1.0068"
"2.04","261.0763","1.016667"
"2.06","263.3905","1.0264"
"2.08","265.6547","1.036567"
"2.1","267.9086","1.046567"
"2.12","270.2077","1.0566"
"2.14","272.4973","1.066567"
"2.16","274.8068","1.0768"
"2.18","277.1179","1.0869"
"2.2","279.4798","1.096733"
"2.22","281.8497","1.106567"
"2.24","284.1163","1.116667"
"2.26","286.3574","1.1263"
"2.28","288.7177","1.136367"
"2.3","291.1687","1.1466"
"2.32","293.7714","1.156733"
"2.34","296.4044","1.1669"
"2.36","298.872","1.176767"
"2.38","301.1998","1.186567"
"2.4","303.3622","1.196467"
"2.42","305.3911","1.206333"
"2.44","307.4439","1.216433"
"2.46","309.5452","1.226633"
"2.48","311.6449","1.236733"
"2.5","313.8033","1.246833"
"2.52","315.965","1.2568"
"2.54","318.1211","1.2666"
"2.56","320.1938","1.276367"
"2.58","322.2235","1.286433"
"2.6","324.2453","1.296433"
"2.62","326.3211","1.3066"
"2.64","328.4359","1.316633"
"2.66","330.6206","1.326733"
"2.68","332.7831","1.3369"
"2.7","334.9082","1.346733"
"2.72","337.019","1.3565"
"2.74","339.032","1.366633"
"2.76","341.0236","1.376433"
"2.78","343.0851","1.386433"
"2.8","345.126","1.3966"
"2.82","347.1446","1.4068"
"2.84","349.1521","1.4169"
"2.86","351.1206","1.4267"
"2.88","353.0248","1.436567"
"2.9","354.8495","1.446467"
"2.92","356.6821","1.4563"
"2.94","358.6618","1.4664"
"2.96","360.7202","1.4766"
"2.98","362.7443","1.486767"
"3","364.6795","1.496733"
"3.02","366.559","1.506733"
"3.04","368.3488","1.516633"
"3.06","370.0256","1.526367"
"3.08","371.6612","1.536433"
"3.1","373.253","1.5465"
"3.12","374.8616","1.5565"
"3.14","376.49","1.566633"
"3.16","378.1509","1.576833"
"3.18","379.8175","1.586967"
"3.2","381.4483","1.596833"
"3.22","382.9845","1.606667"
"3.24","384.3919","1.616633"
"3.26","385.7398","1.626367"
"3.28","387.0829","1.636367"
"3.3","388.449","1.646567"
"3.32","389.8732","1.6568"
"3.34","391.322","1.6669"
"3.36","392.7477","1.676767"
"3.38","394.1409","1.686633"
"3.4","395.4228","1.696467"
"3.42","396.5902","1.7064"
"3.44","397.7545","1.7165"
"3.46","398.9355","1.726733"
"3.48","400.1482","1.736733"
"3.5","401.4039","1.7467"
"3.52","402.6342","1.756733"
"3.54","403.8207","1.766633"
"3.56","404.9579","1.776367"
"3.58","406.0276","1.786433"
"3.6","407.0393","1.796533"
"3.62","408.0605","1.8066"
"3.64","409.0778","1.816633"
"3.66","410.1252","1.8268"
"3.68","411.133","1.836933"
"3.7","412.0851","1.846767"
"3.72","412.968","1.856567"
"3.74","413.7842","1.866567"
"3.76","414.5241","1.8764"
"3.78","415.3061","1.886367"
"3.8","416.077","1.8966"
"3.82","416.9114","1.906733"
"3.84","417.8047","1.916933"
"3.86","418.6503","1.9268"
"3.88","419.5086","1.936533"
"3.9","420.2493","1.9465"
"3.92","420.8477","1.956367"
"3.94","421.5193","1.966433"
"3.96","422.2194","1.9767"
"3.98","422.9037","1.986767"
"4","423.6372","1.996767"
"4.02","424.3573","2.006733"
"4.04","424.9907","2.016633"
"4.06","425.5342","2.0264"
"4.08","426.027","2.036533"
"4.1","426.4641","2.046567"
"4.12","426.9457","2.056567"
"4.14","427.4074","2.066567"
"4.16","427.8692","2.076767"
"4.18","428.3206","2.086933"
"4.2","428.772","2.0967"
"4.22","429.2059","2.106467"
"4.24","429.5333","2.116533"
"4.26","429.8147","2.1263"
"4.28","430.1723","2.1364"
"4.3","430.541","2.146567"
"4.32","430.9535","2.156767"
"4.34","431.3556","2.166867"
"4.36","431.7148","2.176767"
"4.38","432.0955","2.186633"
"4.4","432.3816","2.1965"
"4.42","432.5771","2.206367"
"4.44","432.7242","2.216533"
"4.46","432.8887","2.226833"
"4.48","433.0834","2.236833"
"4.5","433.3178","2.246767"
"4.52","433.507","2.256833"
"4.54","433.6453","2.2667"
"4.56","433.7438","2.2764"
"4.58","433.7939","2.286467"
"4.6","433.7859","2.2965"
"4.62","433.8519","2.3066"
"4.64","433.9464","2.316633"
"4.66","434.0768","2.326767"
"4.68","434.1865","2.336933"
"4.7","434.262","2.346733"
"4.72","434.3359","2.3565"
"4.74","434.316","2.366533"
"4.76","434.2286","2.3763"
"4.78","434.2405","2.3864"
"4.8","434.2651","2.3966"
"4.82","434.3319","2.406767"
"4.84","434.4781","2.4169"
"4.86","434.5767","2.426767"
"4.88","434.622","2.436633"
"4.9","434.5767","2.446467"
"4.92","434.4161","2.456367"
"4.94","434.2731","2.4665"
"4.96","434.165","2.476767"
"4.98","434.107","2.486833"
"5","434.1022","2.496733"
"5.02","434.1014","2.506733"
"5.04","434.0267","2.5167"
"5.06","433.8813","2.5264"
"5.08","433.743","2.536467"
"5.1","433.5896","2.546467"
"5.12","433.4839","2.556533"
"5.14","433.418","2.5666"
"5.16","433.3957","2.5768"
"5.18","433.3774","2.586967"
"5.2","433.3377","2.596733"
"5.22","433.2686","2.606567"
"5.24","433.143","2.616467"
"5.26","432.9586","2.626267"
"5.28","432.7806","2.636333"
"5.3","432.6439","2.646533"
"5.32","417.4217","2.657167"
"5.34","245.5433","2.666967"
"5.36","38.52447","2.676867"
"5.38","8.644263","2.681867"