File: degradation_testing/tensile_testing/Resin/Resin_IPA/Resin_IPA_1.csv
"1 _ 1",,
"Time","Force","Stroke"
"sec","N","mm"
"0","2.872149","0.0001333333"
"0.02","2.887249","0.006566667"
"0.04","3.372033","0.01663333"
"0.06","6.655852","0.02663333"
"0.08","13.10905","0.03663334"
"0.1","20.06769","0.04656667"
"0.12","26.7156","0.05623334"
"0.14","33.13621","0.0663"
"0.16","39.38913","0.07663333"
"0.18","45.58722","0.08666667"
"0.2","51.82981","0.0968"
"0.22","57.88485","0.1069333"
"0.24","62.73587","0.1167333"
"0.26","64.41593","0.1264667"
"0.28","64.43819","0.1364667"
"0.3","64.42944","0.1464667"
"0.32","64.48825","0.1566333"
"0.34","64.52798","0.1667667"
"0.36","64.55024","0.1769667"
"0.38","64.56534","0.1869"
"0.4","64.5717","0.1966667"
"0.42","64.57011","0.2065333"
"0.44","64.57885","0.2165333"
"0.46","64.59872","0.2264667"
"0.48","64.61302","0.2365333"
"0.5","64.63051","0.2467333"
"0.52","64.63846","0.2567667"
"0.54","64.65674","0.2668"
"0.56","64.66866","0.2767667"
"0.58","64.66309","0.2865667"
"0.6","64.65196","0.2966"
"0.62","64.64799","0.3064333"
"0.64","64.63528","0.3164"
"0.66","64.61938","0.3266"
"0.68","64.61302","0.3367"
"0.7","64.62177","0.3467667"
"0.72","64.65435","0.3567667"
"0.74","64.66309","0.3666667"
"0.76","64.67024","0.3764667"
"0.78","64.6925","0.3864667"
"0.8","64.72667","0.3965333"
"0.82","64.73303","0.4067333"
"0.84","64.7513","0.4167333"
"0.86","64.77118","0.4268667"
"0.88","64.77038","0.4368"
"0.9","64.78628","0.4466667"
"0.92","64.79501","0.4565"
"0.94","64.81489","0.4666333"
"0.96","64.83555","0.4765334"
"0.98","64.89118","0.4866"
"1","65.01357","0.4966667"
"1.02","65.96327","0.5068333"
"1.04","69.15569","0.5168667"
"1.06","73.85333","0.5268334"
"1.08","79.03417","0.5366333"
"1.1","84.79993","0.5466334"
"1.12","90.82794","0.5562667"
"1.14","96.94497","0.5664"
"1.16","103.0135","0.5766"
"1.18","109.1131","0.5866666"
"1.2","115.2722","0.5968333"
"1.22","121.3789","0.6068667"
"1.24","127.3831","0.6166667"
"1.26","133.0916","0.6264667"
"1.28","138.4648","0.6365"
"1.3","143.733","0.6464334"
"1.32","149.0426","0.6565667"
"1.34","154.3339","0.6666667"
"1.36","159.7245","0.6768667"
"1.38","165.0921","0.6868"
"1.4","170.3691","0.6966"
"1.42","175.4522","0.7064334"
"1.44","180.401","0.7165"
"1.46","185.3212","0.7264667"
"1.48","190.2421","0.7366"
"1.5","195.1623","0.7467334"
"1.52","200.0809","0.7568"
"1.54","204.9693","0.7668334"
"1.56","209.7297","0.7767667"
"1.58","214.4551","0.7866667"
"1.6","219.0789","0.7966334"
"1.62","223.5572","0.8064667"
"1.64","228.006","0.8164334"
"1.66","232.4223","0.8266333"
"1.68","236.7648","0.8367333"
"1.7","241.096","0.8469"
"1.72","245.3526","0.8569"
"1.74","249.4812","0.8666667"
"1.76","253.4358","0.8764334"
"1.78","257.1615","0.8863667"
"1.8","260.7687","0.8963333"
"1.82","264.4666","0.9064667"
"1.84","268.1947","0.9166667"
"1.86","271.9259","0.9268"
"1.88","275.5999","0.9367667"
"1.9","279.053","0.9466333"
"1.92","282.2797","0.9564"
"1.94","285.3719","0.9665334"
"1.96","288.3299","0.9765"
"1.98","291.2974","0.9864333"
"2","294.2514","0.9966667"
"2.02","297.1768","1.006833"
"2.04","300.0943","1.016933"
"2.06","302.9752","1.026833"
"2.08","305.775","1.036733"
"2.1","308.4238","1.046667"
"2.12","310.967","1.0564"
"2.14","313.4751","1.0665"
"2.16","315.9499","1.076633"
"2.18","318.4199","1.0867"
"2.2","320.8939","1.096867"
"2.22","323.3178","1.1069"
"2.24","325.6917","1.1167"
"2.26","327.9487","1.126433"
"2.28","330.0547","1.136467"
"2.3","332.1075","1.1465"
"2.32","334.1722","1.1567"
"2.34","336.2258","1.166733"
"2.36","338.3215","1.176867"
"2.38","340.4037","1.1867"
"2.4","342.4263","1.1966"
"2.42","344.3925","1.2064"
"2.44","346.3499","1.2165"
"2.46","348.2691","1.2265"
"2.48","350.1789","1.2366"
"2.5","352.1053","1.2467"
"2.52","354.0143","1.2568"
"2.54","355.9065","1.266867"
"2.56","357.7622","1.2768"
"2.58","359.5964","1.286733"
"2.6","361.3281","1.2966"
"2.62","363.0201","1.306467"
"2.64","364.7192","1.316433"
"2.66","366.4764","1.3267"
"2.68","368.251","1.336633"
"2.7","370.0829","1.346833"
"2.72","371.8535","1.356933"
"2.74","373.6552","1.366633"
"2.76","375.3757","1.376467"
"2.78","376.9589","1.3865"
"2.8","378.5753","1.3965"
"2.82","380.2109","1.406633"
"2.84","381.8337","1.416733"
"2.86","383.5058","1.426833"
"2.88","385.1962","1.436733"
"2.9","386.792","1.446633"
"2.92","388.3131","1.4564"
"2.94","389.773","1.4666"
"2.96","391.175","1.476533"
"2.98","392.5999","1.4866"
"3","394.0129","1.496633"
"3.02","395.4331","1.506767"
"3.04","396.8271","1.5169"
"3.06","398.2019","1.526733"
"3.08","399.5689","1.536567"
"3.1","400.8405","1.5465"
"3.12","402.0031","1.5563"
"3.14","403.2278","1.5664"
"3.16","404.493","1.576633"
"3.18","405.7717","1.586633"
"3.2","407.0981","1.596833"
"3.22","408.3411","1.606867"
"3.24","409.5872","1.6167"
"3.26","410.7356","1.626467"
"3.28","411.8045","1.636467"
"3.3","412.8154","1.646533"
"3.32","413.8128","1.6567"
"3.34","414.8062","1.666767"
"3.36","415.8099","1.676833"
"3.38","416.7716","1.6869"
"3.4","417.7046","1.6968"
"3.42","418.5764","1.7065"
"3.44","419.3886","1.716567"
"3.46","420.1619","1.726467"
"3.48","420.9796","1.7365"
"3.5","421.7974","1.746667"
"3.52","422.6367","1.756733"
"3.54","423.4815","1.7668"
"3.56","424.2587","1.7768"
"3.58","424.9946","1.786633"
"3.6","425.6725","1.796567"
"3.62","426.2495","1.8064"
"3.64","426.8432","1.8164"
"3.66","427.4543","1.826667"
"3.68","428.0933","1.8367"
"3.7","428.7712","1.846833"
"3.72","429.3863","1.8569"
"3.74","429.9569","1.866633"
"3.76","430.4616","1.8765"
"3.78","430.8367","1.886433"
"3.8","431.1967","1.896533"
"3.82","431.5821","1.906667"
"3.84","431.9747","1.9168"
"3.86","432.3928","1.926867"
"3.88","432.8267","1.9368"
"3.9","433.2082","1.9467"
"3.92","433.507","1.956467"
"3.94","433.7724","1.966567"
"3.96","434.0243","1.9765"
"3.98","434.2866","1.9865"
"4","434.564","1.996633"
"4.02","434.8683","2.0068"
"4.04","435.1894","2.016867"
"4.06","435.4779","2.0268"
"4.08","435.7179","2.036667"
"4.1","435.8904","2.046567"
"4.12","436.0064","2.056267"
"4.14","436.1534","2.0664"
"4.16","436.2822","2.076467"
"4.18","436.4324","2.086433"
"4.2","436.5818","2.0967"
"4.22","436.7057","2.106867"
"4.24","436.8869","2.1167"
"4.26","437.0165","2.1264"
"4.28","436.9871","2.136467"
"4.3","436.9378","2.1465"
"4.32","436.9402","2.156633"
"4.34","436.9449","2.166733"
"4.36","437.0204","2.176733"
"4.38","437.1095","2.186833"
"4.4","437.1444","2.196633"
"4.42","437.1969","2.206467"
"4.44","437.212","2.2166"
"4.46","437.1651","2.2265"
"4.48","437.1492","2.236567"
"4.5","437.1277","2.2467"
"4.52","437.1611","2.2568"
"4.54","437.2104","2.2669"
"4.56","437.1961","2.276833"
"4.58","437.158","2.286667"
"4.6","437.0379","2.296633"
"4.62","436.8663","2.306433"
"4.64","436.724","2.3164"
"4.66","436.608","2.3267"
"4.68","436.5301","2.336733"
"4.7","422.5222","2.347333"
"4.72","259.8874","2.357033"
"4.74","59.7318","2.3667"
"4.76","30.10909","2.373233"
"4.77","29.43357","2.3738"