File: degradation_testing/tensile_testing/Resin/Resin_IPA/Resin_IPA_5.csv
"1 _ 1",,
"Time","Force","Stroke"
"sec","N","mm"
"0","0.3838539","0.0001333333"
"0.01","0.3886223","0.0021"
"0.02","0.3973643","0.006366667"
"0.03","0.4784266","0.01143333"
"0.04","0.8749962","0.0164"
"0.05","2.000332","0.0214"
"0.06","4.131794","0.0265"
"0.07","7.112821","0.03153333"
"0.08","10.50949","0.03663334"
"0.09","13.98325","0.04183333"
"0.1","17.41886","0.04683333"
"0.11","20.79248","0.05193333"
"0.12","24.09855","0.05693333"
"0.13","27.32356","0.06176667"
"0.14","30.42936","0.0667"
"0.15","33.36271","0.07153334"
"0.16","36.08068","0.07646666"
"0.17","38.54275","0.08156667"
"0.18","40.70838","0.0865"
"0.19","42.52831","0.09136667"
"0.2","43.95723","0.09646667"
"0.21","44.96892","0.1015"
"0.22","45.57133","0.1066667"
"0.23","45.82326","0.1117667"
"0.24","45.83438","0.1167"
"0.25","45.73186","0.1218333"
"0.26","45.61106","0.1269"
"0.27","45.53318","0.1318333"
"0.28","45.53795","0.1368667"
"0.29","45.65001","0.1418"
"0.3","45.87253","0.1467333"
"0.31","46.19598","0.1517"
"0.32","46.61242","0.1565333"
"0.33","47.09641","0.1614667"
"0.34","47.60663","0.1665333"
"0.35","48.11049","0.1714333"
"0.36","48.58573","0.1764"
"0.37","48.99581","0.1815"
"0.38","49.29702","0.1865667"
"0.39","49.47503","0.1917333"
"0.4","49.56007","0.1967667"
"0.41","49.60934","0.2017333"
"0.42","49.67849","0.2067667"
"0.43","49.78657","0.2118"
"0.44","49.87637","0.2168333"
"0.45","49.87796","0.2219333"
"0.46","49.79849","0.2268333"
"0.47","49.71743","0.2318"
"0.48","49.67372","0.2367333"
"0.49","49.66021","0.2416"
"0.5","49.6618","0.2466667"
"0.51","49.67292","0.2516667"
"0.52","49.69279","0.2565"
"0.53","49.71584","0.2614667"
"0.54","49.74206","0.2664333"
"0.55","49.77147","0.2715"
"0.56","49.80087","0.2766667"
"0.57","49.82789","0.2816667"
"0.58","49.85571","0.2867333"
"0.59","49.89386","0.2919333"
"0.6","49.94075","0.2969667"
"0.61","49.98128","0.302"
"0.62","50.00591","0.3069667"
"0.63","50.0083","0.3118333"
"0.64","49.9781","0.3167333"
"0.65","49.91849","0.3215667"
"0.66","49.86048","0.3265"
"0.67","49.83346","0.3315667"
"0.68","49.83823","0.3365"
"0.69","49.87001","0.3413333"
"0.7","49.92564","0.3463667"
"0.71","49.99876","0.3514333"
"0.72","50.07426","0.3565333"
"0.73","50.14658","0.3616667"
"0.74","50.22844","0.3667"
"0.75","50.32619","0.3719333"
"0.76","50.43586","0.3769667"
"0.77","50.5805","0.3818"
"0.78","50.83323","0.3868667"
"0.79","51.26079","0.3918333"
"0.8","51.83856","0.3968"
"0.81","52.43619","0.4017667"
"0.82","52.91224","0.4065"
"0.83","53.20231","0.4114333"
"0.84","53.33583","0.4165667"
"0.85","53.39225","0.4214667"
"0.86","53.4606","0.4264333"
"0.87","53.63067","0.4315"
"0.88","53.97638","0.4365333"
"0.89","54.52712","0.4416667"
"0.9","55.27337","0.4466667"
"0.91","56.20082","0.4516333"
"0.92","57.29755","0.4568"
"0.93","58.55243","0.4618667"
"0.94","59.9726","0.4669333"
"0.95","61.58749","0.472"
"0.96","63.41457","0.4768667"
"0.97","65.40775","0.4817667"
"0.98","67.46213","0.4867"
"0.99","69.46087","0.4915333"
"1","71.31418","0.4966"
"1.01","72.97993","0.5015333"
"1.02","74.45971","0.5063667"
"1.03","75.78214","0.5113667"
"1.04","76.98775","0.5164334"
"1.05","78.12262","0.5215"
"1.06","79.24318","0.5266667"
"1.07","80.42971","0.5316"
"1.08","81.76247","0.5366333"
"1.09","83.27007","0.5418"
"1.1","84.94139","0.5468333"
"1.11","86.76847","0.5518667"
"1.12","88.78549","0.5569"
"1.13","91.02345","0.5617667"
"1.14","93.47678","0.5666667"
"1.15","96.11845","0.5715"
"1.16","98.90398","0.5764334"
"1.17","101.7721","0.5815667"
"1.18","104.6793","0.5864667"
"1.19","107.611","0.5913666"
"1.2","110.5682","0.5964333"
"1.21","113.5135","0.6015"
"1.22","116.3848","0.6066"
"1.23","119.1513","0.6117667"
"1.24","121.8287","0.6167667"
"1.25","124.4505","0.6218667"
"1.26","127.0421","0.6268667"
"1.27","129.6385","0.6317667"
"1.28","132.2651","0.6368334"
"1.29","134.929","0.6417333"
"1.3","137.6136","0.6466333"
"1.31","140.2998","0.6516333"
"1.32","142.9749","0.6564667"
"1.33","145.6237","0.6614"
"1.34","148.232","0.6665334"
"1.35","150.791","0.6714"
"1.36","153.3055","0.6764333"
"1.37","155.801","0.6815333"
"1.38","158.2972","0.6865333"
"1.39","160.7919","0.6916667"
"1.4","163.2818","0.6967"
"1.41","165.7852","0.7016667"
"1.42","168.31","0.7068"
"1.43","170.8293","0.7118334"
"1.44","173.312","0.7169334"
"1.45","175.755","0.7220333"
"1.46","178.175","0.7269334"
"1.47","180.5798","0.7318333"
"1.48","182.9568","0.7367667"
"1.49","185.3021","0.7415667"
"1.5","187.6076","0.7466"
"1.51","189.8781","0.7516333"
"1.52","192.128","0.7564334"
"1.53","194.3843","0.7614"
"1.54","196.6532","0.7664"
"1.55","198.9142","0.7715"
"1.56","201.1482","0.7766667"
"1.57","203.371","0.7816"
"1.58","205.6185","0.7866667"
"1.59","207.9026","0.7918667"
"1.6","210.1946","0.7969"
"1.61","212.4731","0.8020667"
"1.62","214.7388","0.8070334"
"1.63","217.003","0.8118"
"1.64","219.2569","0.8167"
"1.65","221.4821","0.8215667"
"1.66","223.6557","0.8264667"
"1.67","225.7697","0.8315667"
"1.68","227.8447","0.8365"
"1.69","229.9031","0.8414333"
"1.7","231.9709","0.8464667"
"1.71","234.0531","0.8515"
"1.72","236.1337","0.8566334"
"1.73","238.2024","0.8617667"
"1.74","240.2623","0.8667667"
"1.75","242.3263","0.8719"
"1.76","244.3933","0.8769"
"1.77","246.4509","0.8818"
"1.78","248.487","0.8869"
"1.79","250.4913","0.8918"
"1.8","252.4543","0.8966667"
"1.81","254.372","0.9016333"
"1.82","256.2491","0.9064667"
"1.83","258.0865","0.9114667"
"1.84","259.8882","0.9166"
"1.85","261.6795","0.9214666"
"1.86","263.4907","0.9265"
"1.87","265.3313","0.9316"
"1.88","267.1862","0.9365333"
"1.89","269.0323","0.9416333"
"1.9","270.861","0.9467"
"1.91","272.6754","0.9517"
"1.92","274.4762","0.9568"
"1.93","276.262","0.9618"
"1.94","278.0207","0.9669"
"1.95","279.7453","0.9720333"
"1.96","281.4428","0.9768667"
"1.97","283.1245","0.9817667"
"1.98","284.7918","0.9866334"
"1.99","286.4353","0.9914333"
"2","288.0359","0.9965333"
"2.01","289.5912","1.001567"
"2.02","291.1258","1.006333"
"2.03","292.6795","1.011367"
"2.04","294.2618","1.016367"
"2.05","295.8473","1.021467"
"2.06","297.4129","1.0266"
"2.07","298.9682","1.031567"
"2.08","300.5465","1.036667"
"2.09","302.1502","1.041833"
"2.1","303.7524","1.0469"
"2.11","305.3307","1.051967"
"2.12","306.8924","1.056933"
"2.13","308.4485","1.061767"
"2.14","309.9966","1.0667"
"2.15","311.5177","1.071567"
"2.16","313.0023","1.0765"
"2.17","314.4431","1.081633"
"2.18","315.8474","1.086533"
"2.19","317.2278","1.0914"
"2.2","318.6027","1.0965"
"2.21","319.976","1.101567"
"2.22","321.3374","1.1067"
"2.23","322.6821","1.1118"
"2.24","324.0244","1.116733"
"2.25","325.3754","1.121867"
"2.26","326.7312","1.126833"
"2.27","328.0735","1.131767"
"2.28","329.3912","1.136833"
"2.29","330.6866","1.141833"
"2.3","331.9637","1.146767"
"2.31","333.2225","1.151733"
"2.32","334.4663","1.156533"
"2.33","335.687","1.1615"
"2.34","336.8751","1.166567"
"2.35","338.0275","1.171467"
"2.36","339.0654","1.1767"
"2.37","335.8364","1.181933"
"2.38","310.483","1.186867"
"2.39","241.2081","1.191833"
"2.4","141.6373","1.1967"
"2.41","60.24917","1.2016"
"2.42","23.12422","1.206667"
"2.43","14.98143","1.2099"
"2.44","14.38936","1.2108"