File: degradation_testing/tensile_testing/Resin/Resin_IPA/Resin_IPA_4.csv
"1 _ 1",,
"Time","Force","Stroke"
"sec","N","mm"
"0","0.45379","0.0001"
"0.02","0.462532","0.006"
"0.04","0.7160504","0.01563333"
"0.06","2.696514","0.02593333"
"0.08","7.562637","0.0362"
"0.1","13.5533","0.0465"
"0.12","19.48754","0.05653333"
"0.14","25.12296","0.06656667"
"0.16","29.99067","0.0767"
"0.18","33.60192","0.0867"
"0.2","35.44331","0.09646667"
"0.22","35.31218","0.1065333"
"0.24","33.98339","0.1163667"
"0.26","33.05833","0.1264333"
"0.28","33.43026","0.1366333"
"0.3","34.99031","0.1467667"
"0.32","36.877","0.1568"
"0.34","38.21929","0.1668"
"0.36","38.6095","0.1766"
"0.38","38.5205","0.1865"
"0.4","38.90038","0.1962667"
"0.42","40.12902","0.2064667"
"0.44","40.69408","0.2166333"
"0.46","40.28082","0.2266"
"0.48","40.90786","0.2368"
"0.5","41.23052","0.2468667"
"0.52","41.2488","0.2567"
"0.54","41.35847","0.2664"
"0.56","41.31476","0.2764667"
"0.58","41.33145","0.2864667"
"0.6","41.33384","0.2966"
"0.62","41.48881","0.3066667"
"0.64","41.58815","0.3168667"
"0.66","41.61596","0.3268333"
"0.68","41.70338","0.3366667"
"0.7","41.79478","0.3464333"
"0.72","41.90604","0.3565333"
"0.74","42.00618","0.3665"
"0.76","42.18737","0.3765667"
"0.78","42.26685","0.3867"
"0.8","42.50129","0.3968"
"0.82","42.95905","0.4069"
"0.84","43.55351","0.4168667"
"0.86","44.04465","0.4266667"
"0.88","44.70587","0.4365667"
"0.9","46.19757","0.4464333"
"0.92","48.244","0.4564"
"0.94","50.65203","0.4665333"
"0.96","53.5059","0.4766333"
"0.98","56.87714","0.4868"
"1","60.40812","0.4968"
"1.02","63.62279","0.5067334"
"1.04","66.40672","0.5164667"
"1.06","68.88231","0.5264"
"1.08","71.24026","0.5364333"
"1.1","73.70313","0.5466334"
"1.12","76.47752","0.5566334"
"1.14","79.90121","0.5668"
"1.16","83.93685","0.5768"
"1.18","88.65833","0.5867"
"1.2","93.73903","0.5964333"
"1.22","98.88411","0.6065333"
"1.24","103.8718","0.6164"
"1.26","108.645","0.6265333"
"1.28","113.2679","0.6366667"
"1.3","117.991","0.6467"
"1.32","122.714","0.6568"
"1.34","127.3648","0.6667667"
"1.36","131.9933","0.6765667"
"1.38","136.5304","0.6865333"
"1.4","140.957","0.6962333"
"1.42","145.4345","0.7063667"
"1.44","149.9526","0.7166"
"1.46","154.4897","0.7265667"
"1.48","158.9974","0.7367333"
"1.5","163.3652","0.7468"
"1.52","167.6671","0.7567334"
"1.54","171.8744","0.7664334"
"1.56","175.9783","0.7764333"
"1.58","179.9957","0.7864333"
"1.6","183.9614","0.7966334"
"1.62","187.9366","0.8066667"
"1.64","191.985","0.8167667"
"1.66","195.9697","0.8268"
"1.68","199.7638","0.8367"
"1.7","203.4823","0.8464667"
"1.72","207.0912","0.8565"
"1.74","210.4775","0.8664333"
"1.76","214.0276","0.8765"
"1.78","217.4544","0.8866333"
"1.8","221.0593","0.8967333"
"1.82","224.5649","0.9068334"
"1.84","227.9147","0.9167333"
"1.86","231.1238","0.9266334"
"1.88","234.1247","0.9365667"
"1.9","237.023","0.9464667"
"1.92","239.9643","0.9564"
"1.94","242.9422","0.9666333"
"1.96","245.7627","0.9766667"
"1.98","248.5331","0.9868333"
"2","251.1414","0.9969"
"2.02","253.6162","1.0068"
"2.04","256.0338","1.0165"
"2.06","258.2916","1.026433"
"2.08","260.4898","1.0364"
"2.1","262.6371","1.046633"
"2.12","264.825","1.056733"
"2.14","267.055","1.0669"
"2.16","269.3152","1.0768"
"2.18","271.5182","1.086667"
"2.2","273.6719","1.096433"
"2.22","275.7915","1.106467"
"2.24","277.8856","1.1164"
"2.26","279.9829","1.126433"
"2.28","282.0881","1.1366"
"2.3","284.1902","1.146733"
"2.32","286.2763","1.156833"
"2.34","288.2965","1.1668"
"2.36","290.2897","1.176633"
"2.38","292.2249","1.186567"
"2.4","294.0933","1.196233"
"2.42","295.945","1.206433"
"2.44","297.7713","1.216633"
"2.46","299.631","1.226633"
"2.48","301.5168","1.236733"
"2.5","303.3098","1.246867"
"2.52","305.1257","1.256733"
"2.54","306.9337","1.266467"
"2.56","308.6305","1.2764"
"2.58","310.2398","1.286467"
"2.6","311.8849","1.296567"
"2.62","313.549","1.306667"
"2.64","315.2919","1.316833"
"2.66","317.0196","1.326767"
"2.68","318.7259","1.3366"
"2.7","320.3901","1.346367"
"2.72","321.9843","1.3564"
"2.74","323.5292","1.3663"
"2.76","325.0766","1.376433"
"2.78","326.6684","1.3867"
"2.8","328.3445","1.396767"
"2.82","330.015","1.4069"
"2.84","331.5949","1.4167"
"2.86","333.1224","1.426533"
"2.88","334.5179","1.4366"
"2.9","335.8293","1.446467"
"2.92","337.2153","1.456367"
"2.94","338.6068","1.466633"
"2.96","339.9555","1.4767"
"2.98","341.3741","1.486833"
"3","342.7895","1.4969"
"3.02","344.1978","1.506733"
"3.04","345.5241","1.516433"
"3.06","346.7218","1.526433"
"3.08","347.8678","1.536467"
"3.1","349.0543","1.546667"
"3.12","350.3036","1.5567"
"3.14","351.6014","1.5669"
"3.16","352.8587","1.576767"
"3.18","354.0468","1.586633"
"3.2","355.1793","1.596467"
"3.22","356.2919","1.606633"
"3.24","357.3886","1.616533"
"3.26","358.4774","1.626567"
"3.28","359.5002","1.636667"
"3.3","360.5151","1.646733"
"3.32","361.5451","1.656833"
"3.34","362.5059","1.6668"
"3.36","363.4222","1.676633"
"3.38","364.2607","1.6866"
"3.4","365.0331","1.696267"
"3.42","365.8366","1.706333"
"3.44","366.6194","1.716567"
"3.46","367.4396","1.726667"
"3.48","368.367","1.7368"
"3.5","369.2651","1.746833"
"3.52","370.1679","1.7566"
"3.54","371.0103","1.766433"
"3.56","371.7375","1.776467"
"3.58","372.4472","1.786433"
"3.6","373.1839","1.7966"
"3.62","373.8999","1.8067"
"3.64","374.6398","1.816933"
"3.66","375.3543","1.826767"
"3.68","376.0028","1.836667"
"3.7","376.5623","1.846433"
"3.72","377.0542","1.8565"
"3.74","377.481","1.8664"
"3.76","377.9109","1.876467"
"3.78","378.3727","1.886667"
"3.8","378.8734","1.896767"
"3.82","379.3732","1.906833"
"3.84","379.8119","1.9167"
"3.86","380.1934","1.9266"
"3.88","380.5192","1.936533"
"3.9","380.8045","1.9464"
"3.92","381.1518","1.956267"
"3.94","381.5174","1.966567"
"3.96","381.8409","1.976633"
"3.98","382.2668","1.986767"
"4","382.6586","1.996867"
"4.02","383.0139","2.0067"
"4.04","383.3302","2.016433"
"4.06","383.5559","2.026433"
"4.08","383.722","2.036467"
"4.1","383.8944","2.046667"
"4.12","384.0772","2.056667"
"4.14","384.3005","2.066867"
"4.16","384.4945","2.076733"
"4.18","384.6772","2.0867"
"4.2","384.7845","2.096467"
"4.22","384.9085","2.106533"
"4.24","384.9848","2.116533"
"4.26","385.0675","2.126567"
"4.28","385.1827","2.136667"
"4.3","385.3305","2.146733"
"4.32","385.4593","2.156833"
"4.34","385.5642","2.1668"
"4.36","385.6484","2.176667"
"4.38","385.704","2.186633"
"4.4","385.7025","2.1963"
"4.42","385.7207","2.206367"
"4.44","385.7485","2.2166"
"4.46","385.8256","2.2267"
"4.48","385.9631","2.236833"
"4.5","386.0855","2.2469"
"4.52","386.1618","2.256733"
"4.54","386.1682","2.266467"
"4.56","386.0617","2.276467"
"4.58","385.9274","2.286467"
"4.6","385.8312","2.296633"
"4.62","385.7287","2.306633"
"4.64","385.6873","2.316833"
"4.66","385.6707","2.326767"
"4.68","385.6603","2.336633"
"4.7","385.5928","2.346433"
"4.72","385.5038","2.3565"
"4.74","385.3989","2.366367"
"4.76","385.3138","2.3765"
"4.78","385.2502","2.386667"
"4.8","385.2693","2.396667"
"4.82","385.286","2.4068"
"4.84","385.2407","2.416767"
"4.86","385.2097","2.426567"
"4.88","385.1541","2.4366"
"4.9","385.0118","2.446467"
"4.92","384.926","2.4564"
"4.94","384.868","2.4666"
"4.96","384.7686","2.4767"
"4.98","384.744","2.486867"
"5","384.7242","2.496933"
"5.02","384.6574","2.506667"
"5.04","384.5382","2.516433"
"5.06","384.3093","2.526367"
"5.08","384.1058","2.536367"
"5.1","383.9564","2.5466"
"5.12","383.8189","2.556667"
"5.14","383.7625","2.566833"
"5.16","383.7363","2.576733"
"5.18","383.691","2.586567"
"5.2","383.5996","2.596333"
"5.22","383.4701","2.6065"
"5.24","383.3103","2.616467"
"5.26","383.2166","2.6265"
"5.28","383.1411","2.6366"
"5.3","372.355","2.647233"
"5.32","230.4069","2.6571"
"5.34","38.9115","2.666833"
"5.36","6.693204","2.672533"