File: degradation_testing/tensile_testing/Resin/Resin_IPA/Resin_IPA_2.csv
"1 _ 1",,
"Time","Force","Stroke"
"sec","N","mm"
"0","0.5515416","6.666667E-05"
"0.02","0.5737941","0.006"
"0.04","0.8567174","0.01596667"
"0.06","2.836386","0.02636667"
"0.08","8.142789","0.03646667"
"0.1","15.14435","0.04643333"
"0.12","21.90193","0.05636667"
"0.14","28.11273","0.0662"
"0.16","33.83875","0.0763"
"0.18","39.18489","0.08656666"
"0.2","44.25367","0.09676667"
"0.22","48.58732","0.1066667"
"0.24","50.45096","0.1167667"
"0.26","50.54474","0.1266"
"0.28","50.69494","0.1364"
"0.3","50.50898","0.1464"
"0.32","49.64431","0.1564333"
"0.34","49.65305","0.1666667"
"0.36","50.69256","0.1767333"
"0.38","50.81971","0.1868333"
"0.4","50.79667","0.197"
"0.42","50.77203","0.2068333"
"0.44","50.7458","0.2165667"
"0.46","50.71402","0.2265"
"0.48","50.69892","0.2364667"
"0.5","50.67825","0.2465333"
"0.52","50.68382","0.2565667"
"0.54","50.66554","0.2668667"
"0.56","50.69017","0.2769667"
"0.58","50.67825","0.2867333"
"0.6","50.71481","0.2965"
"0.62","50.78316","0.3065333"
"0.64","50.85786","0.3163667"
"0.66","50.90793","0.3265667"
"0.68","50.93972","0.3367333"
"0.7","50.97469","0.3468333"
"0.72","50.98264","0.3567667"
"0.74","51.00171","0.3667333"
"0.76","50.99694","0.3766"
"0.78","50.99535","0.3864667"
"0.8","50.99297","0.3964"
"0.82","51.04621","0.4065"
"0.84","51.05178","0.4167333"
"0.86","51.12012","0.4266667"
"0.88","51.46424","0.4368"
"0.9","51.9069","0.4469333"
"0.92","52.09287","0.4567667"
"0.94","52.33765","0.4665667"
"0.96","52.73263","0.4765667"
"0.98","53.36682","0.4863667"
"1","54.31096","0.4965333"
"1.02","55.86227","0.5065333"
"1.04","59.05946","0.5167667"
"1.06","64.03923","0.5269667"
"1.08","70.0593","0.5367333"
"1.1","76.44415","0.5464666"
"1.12","82.58978","0.5565333"
"1.14","88.41753","0.5663667"
"1.16","94.12766","0.5765"
"1.18","99.69314","0.5866666"
"1.2","105.1426","0.5968333"
"1.22","110.5046","0.6067667"
"1.24","115.6274","0.6167"
"1.26","120.3044","0.6265"
"1.28","124.4267","0.6364667"
"1.3","128.1166","0.6464"
"1.32","131.5936","0.6565"
"1.34","134.9719","0.6666"
"1.36","138.2391","0.6766334"
"1.38","141.3806","0.6867667"
"1.4","144.3521","0.6969"
"1.42","147.2886","0.7067333"
"1.44","150.1584","0.7164"
"1.46","152.8637","0.7264"
"1.48","155.4823","0.7363334"
"1.5","158.0612","0.7465"
"1.52","160.5853","0.7565667"
"1.54","163.1077","0.7668334"
"1.56","165.6095","0.7768667"
"1.58","168.0843","0.7867333"
"1.6","170.5074","0.7965333"
"1.62","172.7573","0.8066"
"1.64","174.8482","0.8164334"
"1.66","176.9344","0.8265667"
"1.68","178.9641","0.8367667"
"1.7","180.9963","0.8468667"
"1.72","183.0236","0.8568333"
"1.74","184.9858","0.8668"
"1.76","186.9051","0.8767"
"1.78","188.7846","0.8864667"
"1.8","190.5338","0.8964334"
"1.82","192.2178","0.9065"
"1.84","193.9853","0.9166667"
"1.86","196.0206","0.9265667"
"1.88","198.3277","0.9367"
"1.9","200.4552","0.9468667"
"1.92","202.345","0.9567333"
"1.94","204.1372","0.9665"
"1.96","205.8745","0.9765667"
"1.98","207.684","0.9864"
"2","209.5556","0.9965667"
"2.02","211.4407","1.006567"
"2.04","213.3846","1.016767"
"2.06","215.2896","1.026933"
"2.08","217.1127","1.0367"
"2.1","218.8587","1.046567"
"2.12","220.5189","1.056567"
"2.14","222.1735","1.0664"
"2.16","223.8743","1.076567"
"2.18","225.6552","1.086733"
"2.2","227.5467","1.096933"
"2.22","229.5176","1.106733"
"2.24","231.5346","1.116833"
"2.26","233.5278","1.1266"
"2.28","235.5719","1.136367"
"2.3","237.5897","1.146367"
"2.32","239.6711","1.156433"
"2.34","241.8478","1.1666"
"2.36","244.0254","1.176667"
"2.38","246.2053","1.1868"
"2.4","248.3503","1.1969"
"2.42","250.4643","1.206733"
"2.44","252.5711","1.216433"
"2.46","254.6104","1.226333"
"2.48","256.6512","1.236367"
"2.5","258.7621","1.2464"
"2.52","260.9126","1.2564"
"2.54","263.025","1.2667"
"2.56","265.104","1.276867"
"2.58","267.2283","1.2867"
"2.6","269.3597","1.296467"
"2.62","271.3712","1.306533"
"2.64","273.3358","1.3164"
"2.66","275.3862","1.326433"
"2.68","277.5025","1.336733"
"2.7","279.669","1.3468"
"2.72","281.9204","1.3567"
"2.74","284.1115","1.366667"
"2.76","286.2787","1.376633"
"2.78","288.4499","1.3865"
"2.8","290.5703","1.396433"
"2.82","292.6667","1.406567"
"2.84","294.8578","1.4167"
"2.86","297.2118","1.426667"
"2.88","299.7375","1.4368"
"2.9","302.2726","1.446933"
"2.92","304.7252","1.456733"
"2.94","306.9456","1.466533"
"2.96","308.8665","1.476533"
"2.98","310.6523","1.4864"
"3","312.4547","1.496533"
"3.02","314.1912","1.506633"
"3.04","315.9793","1.516833"
"3.06","317.7531","1.526933"
"3.08","319.4412","1.536667"
"3.1","320.9988","1.5465"
"3.12","322.3506","1.556467"
"3.14","323.5475","1.5663"
"3.16","324.7452","1.5764"
"3.18","326.0215","1.586733"
"3.2","327.4258","1.5969"
"3.22","328.9111","1.606667"
"3.24","330.3798","1.6167"
"3.26","331.7976","1.626633"
"3.28","333.2035","1.636467"
"3.3","334.5243","1.646433"
"3.32","335.8181","1.656467"
"3.34","337.1437","1.6667"
"3.36","338.5266","1.676733"
"3.38","340.0008","1.686767"
"3.4","341.4496","1.696967"
"3.42","342.865","1.706833"
"3.44","344.2852","1.716567"
"3.46","345.5798","1.7264"
"3.48","346.7727","1.736333"
"3.5","347.9497","1.746533"
"3.52","349.1656","1.756567"
"3.54","350.3728","1.7668"
"3.56","351.4775","1.776867"
"3.58","352.7053","1.7867"
"3.6","354.019","1.796433"
"3.62","355.258","1.8065"
"3.64","356.3746","1.816333"
"3.66","357.3918","1.8265"
"3.68","358.4329","1.8368"
"3.7","359.6075","1.846833"
"3.72","360.9498","1.856633"
"3.74","362.3494","1.866667"
"3.76","363.7322","1.876567"
"3.78","365.1516","1.8864"
"3.8","366.5225","1.896333"
"3.82","367.8918","1.9065"
"3.84","369.4073","1.916733"
"3.86","371.1025","1.9267"
"3.88","373.0512","1.9368"
"3.9","375.0634","1.946933"
"3.92","377.0502","1.9567"
"3.94","379.0069","1.966467"
"3.96","380.8848","1.976567"
"3.98","382.758","1.986367"
"4","384.7075","1.9965"
"4.02","386.6386","2.0066"
"4.04","388.6366","2.0168"
"4.06","390.6512","2.027"
"4.08","392.5681","2.036767"
"4.1","394.481","2.046567"
"4.12","396.3137","2.056633"
"4.14","398.0613","2.066433"
"4.16","399.7612","2.0765"
"4.18","401.3348","2.086767"
"4.2","402.8924","2.096933"
"4.22","404.4716","2.106633"
"4.24","405.9712","2.116633"
"4.26","407.3739","2.126567"
"4.28","408.8116","2.1365"
"4.3","410.2119","2.146433"
"4.32","411.5947","2.156467"
"4.34","412.9767","2.1667"
"4.36","414.385","2.176667"
"4.38","415.8608","2.1867"
"4.4","417.281","2.196867"
"4.42","418.6789","2.206767"
"4.44","420.0745","2.216533"
"4.46","421.4128","2.226433"
"4.48","422.6963","2.236367"
"4.5","423.9766","2.246567"
"4.52","425.3046","2.256567"
"4.54","426.7518","2.266867"
"4.56","428.1378","2.276967"
"4.58","429.465","2.2868"
"4.6","430.7445","2.2965"
"4.62","431.9016","2.306567"
"4.64","432.9109","2.316333"
"4.66","433.9297","2.326533"
"4.68","434.978","2.336767"
"4.7","436.0922","2.346933"
"4.72","437.2438","2.356733"
"4.74","438.3135","2.366667"
"4.76","439.2703","2.376533"
"4.78","440.1954","2.386433"
"4.8","441.0863","2.396333"
"4.82","441.9788","2.4064"
"4.84","442.8744","2.416633"
"4.86","443.7947","2.426533"
"4.88","444.7587","2.436633"
"4.9","445.6727","2.446833"
"4.92","446.5302","2.456733"
"4.94","447.3448","2.4665"
"4.96","448.0712","2.476567"
"4.98","448.7777","2.486367"
"5","449.5041","2.496467"
"5.02","450.1621","2.5066"
"5.04","450.8734","2.5168"
"5.06","451.5831","2.527"
"5.08","452.2109","2.5367"
"5.1","452.7998","2.546533"
"5.12","453.2655","2.556633"
"5.14","453.6788","2.566433"
"5.16","454.1","2.576533"
"5.18","454.5291","2.586767"
"5.2","455.0044","2.596933"
"5.22","455.4908","2.6066"
"5.24","455.9477","2.616733"
"5.26","456.3196","2.6266"
"5.28","456.717","2.636467"
"5.3","457.046","2.646467"
"5.32","457.3568","2.6565"
"5.34","457.716","2.666667"
"5.36","458.0522","2.676733"
"5.38","458.4153","2.686833"
"5.4","458.7364","2.696933"
"5.42","458.9574","2.706833"
"5.44","459.133","2.716567"
"5.46","459.2053","2.726467"
"5.48","459.249","2.736367"
"5.5","459.2983","2.746467"
"5.52","459.3651","2.756533"
"5.54","459.5407","2.7668"
"5.56","459.7243","2.7769"
"5.58","459.8673","2.786733"
"5.6","459.9754","2.7965"
"5.62","459.9849","2.806567"
"5.64","459.8975","2.816367"
"5.66","459.8331","2.8265"
"5.68","459.7998","2.836767"
"5.7","459.8141","2.846867"
"5.72","459.8689","2.8567"
"5.74","459.8943","2.866667"
"5.76","459.8451","2.8766"
"5.78","459.8037","2.886467"
"5.8","459.7155","2.896467"
"5.82","443.755","2.907067"
"5.84","264.0685","2.9169"
"5.86","47.38887","2.9267"
"5.88","16.51764","2.9322"