File: degradation_testing/tensile_testing/PLA/PLA_IPA/PLA-IPA-5.csv
"1 _ 1",,
"Time","Force","Stroke"
"sec","N","mm"
"0","0.4617373","0.0001333333"
"0.04","0.6826718","0.01646667"
"0.08","6.77983","0.0363"
"0.12","14.70327","0.0565"
"0.16","23.26647","0.07683334"
"0.2","31.50781","0.09666667"
"0.24","39.76424","0.1165333"
"0.28","47.76478","0.1365667"
"0.32","55.72637","0.1568"
"0.36","61.48895","0.1769333"
"0.4","65.27424","0.1966"
"0.44","66.0634","0.2164333"
"0.48","66.38924","0.2366667"
"0.52","66.01015","0.257"
"0.56","66.18579","0.2765"
"0.6","67.52888","0.2964333"
"0.64","66.49574","0.3168"
"0.68","66.55137","0.3369"
"0.72","67.52014","0.3565333"
"0.76","66.72303","0.3765"
"0.8","67.22688","0.3967667"
"0.84","67.13152","0.4169667"
"0.88","67.04251","0.4367667"
"0.92","66.94238","0.4563333"
"0.96","66.81442","0.4766333"
"1","67.25867","0.4968667"
"1.04","67.27616","0.5168"
"1.08","69.2916","0.5365334"
"1.12","74.74661","0.5566"
"1.16","78.69323","0.5768334"
"1.2","80.89384","0.5967"
"1.24","82.6478","0.6165333"
"1.28","85.83864","0.6365333"
"1.32","92.21474","0.6567"
"1.36","99.31087","0.6768"
"1.4","105.47","0.6966"
"1.44","111.3049","0.7163333"
"1.48","113.4976","0.7367"
"1.52","114.7556","0.7570333"
"1.56","118.4336","0.7765667"
"1.6","124.4259","0.7964666"
"1.64","132.5639","0.8168"
"1.68","140.5231","0.8368334"
"1.72","148.2725","0.8564667"
"1.76","155.8566","0.8764334"
"1.8","163.4645","0.8966333"
"1.84","170.9851","0.9168333"
"1.88","178.4046","0.9368333"
"1.92","185.4014","0.9563667"
"1.96","191.9762","0.9767"
"2","198.9881","0.9968667"
"2.04","206.1884","1.0168"
"2.08","213.1112","1.036533"
"2.12","219.6582","1.056633"
"2.16","226.1758","1.076967"
"2.2","232.5916","1.0967"
"2.24","236.4103","1.1165"
"2.28","240.9442","1.136467"
"2.32","246.6838","1.1568"
"2.36","252.1292","1.176833"
"2.4","257.1432","1.196467"
"2.44","261.9092","1.216267"
"2.48","266.583","1.2367"
"2.52","271.2933","1.256933"
"2.56","275.6381","1.276467"
"2.6","279.6928","1.296433"
"2.64","283.7777","1.316733"
"2.68","288.0708","1.336833"
"2.72","292.12","1.3565"
"2.76","295.9728","1.376533"
"2.8","299.7684","1.396733"
"2.84","303.5498","1.416867"
"2.88","307.1332","1.4368"
"2.92","310.4138","1.456367"
"2.96","313.6309","1.476633"
"3","316.8766","1.496833"
"3.04","320.0992","1.516733"
"3.08","323.2312","1.536533"
"3.12","326.5055","1.556633"
"3.16","329.7631","1.577"
"3.2","332.8713","1.596767"
"3.24","335.629","1.6166"
"3.28","338.0291","1.636567"
"3.32","340.3036","1.656767"
"3.36","342.3746","1.676867"
"3.4","344.1985","1.696567"
"3.44","345.6426","1.716367"
"3.48","347.0635","1.736633"
"3.52","348.4734","1.7569"
"3.56","349.7068","1.776467"
"3.6","350.616","1.7965"
"3.64","351.3582","1.816667"
"3.68","352.1077","1.8368"
"3.72","352.7276","1.856533"
"3.76","353.1162","1.876533"
"3.8","353.4683","1.8966"
"3.84","353.8004","1.916867"
"3.88","354.077","1.936767"
"3.92","354.0055","1.9564"
"3.96","353.8783","1.976633"
"4","353.9165","1.996967"
"4.04","353.86","2.0168"
"4.08","353.3625","2.036533"
"4.12","352.5472","2.056633"
"4.16","351.7493","2.0769"
"4.2","350.9267","2.0967"
"4.24","349.8467","2.116567"
"4.28","348.6299","2.1365"
"4.32","347.4752","2.156767"
"4.36","346.2084","2.1769"
"4.4","344.5887","2.196667"
"4.44","342.6067","2.216433"
"4.48","340.5801","2.236733"
"4.52","338.4193","2.257"
"4.56","335.8452","2.276533"
"4.6","332.9102","2.2965"
"4.64","329.9483","2.3167"
"4.68","326.9378","2.336733"
"4.72","323.7955","2.3565"
"4.76","320.3352","2.3764"
"4.8","316.7876","2.396633"
"4.84","313.247","2.416867"
"4.88","309.5984","2.436767"
"4.92","305.9371","2.456333"
"4.96","302.5047","2.476633"
"5","299.3695","2.496933"
"5.04","296.034","2.516767"
"5.08","291.8299","2.5365"
"5.12","287.2133","2.556667"
"5.16","282.6413","2.5769"
"5.2","278.4936","2.596733"
"5.24","274.5318","2.616533"
"5.28","270.4946","2.636567"
"5.32","266.6163","2.656767"
"5.36","262.7261","2.6769"
"5.4","258.8638","2.696567"
"5.44","254.9736","2.7164"
"5.48","251.2089","2.7367"
"5.52","247.252","2.7571"
"5.56","243.2052","2.7765"
"5.6","238.5592","2.7965"
"5.64","233.5676","2.816733"
"5.68","228.1229","2.836833"
"5.72","222.1243","2.856567"
"5.76","214.9081","2.876533"
"5.8","207.3352","2.8966"
"5.84","197.9486","2.9169"
"5.88","185.4603","2.9367"
"5.92","167.4175","2.956333"
"5.96","138.8645","2.976633"
"6","117.7645","2.996833"
"6.04","108.4145","3.0168"
"6.08","101.6959","3.036533"
"6.12","96.35369","3.056667"
"6.16","91.72121","3.076833"
"6.2","87.11338","3.096733"
"6.24","81.30789","3.1166"
"6.28","74.07904","3.136567"
"6.32","61.26881","3.156867"
"6.36","31.52132","3.1769"
"6.4","30.34194","3.196567"
"6.44","30.31174","3.216433"
"6.48","30.27598","3.2367"
"6.52","30.26724","3.256933"
"6.56","30.26247","3.276533"
"6.6","30.27121","3.296533"
"6.64","30.25293","3.316733"
"6.68","30.25373","3.3369"
"6.72","30.25293","3.356567"
"6.76","30.26009","3.376433"
"6.8","30.25929","3.396733"
"6.84","30.26247","3.4169"
"6.88","30.26485","3.436767"
"6.92","30.21717","3.456367"
"6.96","30.23783","3.476667"
"7","30.23704","3.496867"
"7.04","30.26644","3.516733"
"7.08","30.25929","3.536533"
"7.12","30.24658","3.556533"
"7.16","30.25055","3.576767"
"7.2","30.25134","3.596633"
"7.24","30.25134","3.616567"
"7.28","30.2736","3.6365"
"7.32","30.2577","3.656833"
"7.36","30.25373","3.6769"
"7.4","30.26644","3.6966"
"7.44","30.2577","3.716467"
"7.48","30.25055","3.736733"
"7.52","30.24658","3.756967"
"7.56","30.25055","3.7765"
"7.6","30.25134","3.796467"
"7.64","30.24499","3.8167"
"7.68","30.24499","3.836833"
"7.72","30.26485","3.856533"
"7.76","30.25134","3.876467"
"7.8","30.25055","3.8967"
"7.84","30.2426","3.916867"
"7.88","30.24896","3.936833"
"7.92","30.26167","3.9564"
"7.96","30.25611","3.9767"
"8","30.25055","3.996833"
"8.04","30.25929","4.016733"
"8.08","30.24896","4.0365"
"8.12","30.25611","4.056633"
"8.16","30.26406","4.0768"
"8.2","30.25293","4.096767"
"8.24","30.2426","4.1165"
"8.28","30.25373","4.136467"
"8.32","30.26167","4.156767"
"8.36","30.25055","4.1768"
"8.4","30.25532","4.1966"
"8.44","30.26247","4.216434"
"8.48","30.26167","4.236667"
"8.52","30.25611","4.2569"
"8.56","30.24817","4.276534"
"8.6","30.24499","4.296534"
"8.64","30.25293","4.316767"
"8.68","30.28075","4.336867"
"8.72","30.25134","4.356567"
"8.76","30.25532","4.376433"
"8.8","30.25373","4.3967"
"8.84","30.26883","4.4169"
"8.88","30.25532","4.4367"
"8.92","30.24499","4.4563"
"8.96","30.26167","4.4767"
"9","30.24181","4.4969"
"9.04","30.26167","4.516767"
"9.08","30.26883","4.536533"
"9.12","30.25373","4.556667"
"9.15","30.25293","4.5673"