File: degradation_testing/tensile_testing/PLA/PLA_IPA/PLA-IPA-1.csv
"1 _ 1",,
"Time","Force","Stroke"
"sec","N","mm"
"0","0.3266335","6.666667E-05"
"0.07","2.417564","0.03143333"
"0.14","11.57522","0.0663"
"0.21","20.4126","0.1016333"
"0.28","27.14316","0.1368333"
"0.35","32.28664","0.1713667"
"0.42","40.38413","0.2069667"
"0.49","42.86687","0.2415"
"0.56","44.50162","0.2768"
"0.63","50.76647","0.3114333"
"0.7","55.59285","0.3465667"
"0.77","58.3903","0.3819"
"0.84","65.72882","0.4162667"
"0.91","66.45998","0.4518"
"0.98","66.49653","0.4865"
"1.05","66.36699","0.5217333"
"1.12","65.84326","0.5566667"
"1.19","66.38448","0.5915"
"1.26","68.46984","0.6268667"
"1.33","70.85721","0.6613333"
"1.4","75.78532","0.6968"
"1.47","83.16596","0.7314333"
"1.54","92.55965","0.7667667"
"1.61","101.56","0.8018"
"1.68","110.2471","0.8364"
"1.75","118.6752","0.8717667"
"1.82","127.3553","0.9065667"
"1.89","135.4527","0.9415"
"1.96","143.7322","0.9766"
"2.03","150.9778","1.011533"
"2.1","158.6167","1.046867"
"2.17","165.8948","1.081433"
"2.24","173.4209","1.116833"
"2.31","180.455","1.151533"
"2.38","187.0124","1.1866"
"2.45","193.8041","1.2217"
"2.52","200.3407","1.256467"
"2.59","206.7351","1.291733"
"2.66","212.9928","1.326533"
"2.73","218.7443","1.361767"
"2.8","224.4027","1.3966"
"2.87","229.6479","1.4316"
"2.94","235.0005","1.466767"
"3.01","237.0389","1.501367"
"3.08","239.0607","1.5367"
"3.15","243.7043","1.5715"
"3.22","247.8043","1.606633"
"3.29","251.9957","1.641667"
"3.36","255.7627","1.6764"
"3.43","259.5552","1.7119"
"3.5","263.1521","1.7464"
"3.57","266.3795","1.781867"
"3.64","269.4734","1.8164"
"3.71","272.2335","1.8516"
"3.78","275.3154","1.8868"
"3.85","278.0175","1.9214"
"3.92","280.8929","1.956967"
"3.99","283.5075","1.9916"
"4.06","285.7892","2.026767"
"4.13","288.3339","2.061533"
"4.2","290.6394","2.0966"
"4.27","293.1054","2.1318"
"4.34","295.3768","2.166333"
"4.41","297.6672","2.201867"
"4.48","299.9052","2.236567"
"4.55","301.8538","2.271633"
"4.62","304.0536","2.3067"
"4.69","306.0087","2.341467"
"4.76","308.1028","2.376867"
"4.83","309.7495","2.411367"
"4.9","311.3326","2.446733"
"4.97","313.0197","2.481467"
"5.04","314.3517","2.516767"
"5.11","315.9006","2.551633"
"5.18","317.2874","2.586467"
"5.25","318.6425","2.6218"
"5.32","319.8354","2.656567"
"5.39","320.8701","2.691633"
"5.46","322.1273","2.726633"
"5.53","322.9793","2.761467"
"5.6","323.7438","2.7968"
"5.67","324.161","2.8314"
"5.74","324.5529","2.866833"
"5.81","324.9971","2.901533"
"5.88","325.1608","2.936633"
"5.95","325.5208","2.971733"
"6.02","325.2157","3.0064"
"6.09","324.6069","3.041767"
"6.16","323.445","3.076467"
"6.23","322.1472","3.1117"
"6.3","321.0243","3.1466"
"6.37","319.5182","3.1816"
"6.44","317.8628","3.216767"
"6.51","315.6416","3.251467"
"6.58","313.2494","3.2868"
"6.65","310.7023","3.321467"
"6.72","307.7857","3.356567"
"6.79","304.4685","3.391767"
"6.86","299.8074","3.426433"
"6.93","294.4406","3.461967"
"7","288.5358","3.496367"
"7.07","281.1265","3.531833"
"7.14","273.0568","3.566367"
"7.21","263.0687","3.601767"
"7.28","251.1168","3.6368"
"7.35","235.3986","3.6714"
"7.42","216.616","3.707"
"7.49","192.7662","3.741533"
"7.56","161.2663","3.7768"
"7.63","153.1895","3.8116"
"7.7","149.7769","3.8465"
"7.77","148.0762","3.8819"
"7.84","146.1045","3.916333"
"7.91","144.7161","3.951767"
"7.98","143.8046","3.986433"
"8.05","142.7356","4.021667"
"8.12","142.0339","4.0567"
"8.19","140.9419","4.0915"
"8.26","140.0296","4.126966"
"8.33","138.3575","4.161433"
"8.4","137.105","4.1967"
"8.47","135.7826","4.2315"
"8.54","134.0469","4.266634"
"8.61","132.3477","4.301667"
"8.68","130.4976","4.3366"
"8.75","128.3503","4.3718"
"8.82","125.9112","4.406633"
"8.89","122.6632","4.4416"
"8.96","118.3399","4.476533"
"9.03","113.728","4.511567"
"9.1","109.3499","4.546733"
"9.17","104.5879","4.5814"
"9.24","100.1199","4.6168"
"9.31","95.68533","4.651534"
"9.38","91.31352","4.686666"
"9.45","87.04185","4.7217"
"9.52","82.71297","4.7564"
"9.59","78.43653","4.791733"
"9.66","74.9588","4.826433"
"9.73","71.41908","4.861733"
"9.8","66.80568","4.8966"
"9.87","61.56683","4.9316"
"9.94","59.26688","4.9668"
"10.01","55.53007","5.001433"
"10.08","30.08127","5.036734"
"10.15","26.03134","5.071467"
"10.22","25.96378","5.1067"
"10.29","26.03769","5.1417"
"10.36","26.01782","5.1764"
"10.43","25.96855","5.211967"
"10.5","25.90179","5.246367"
"10.57","25.95027","5.2819"
"10.64","25.93756","5.316433"
"10.71","25.95981","5.351667"
"10.78","25.97491","5.3867"
"10.85","25.92166","5.421433"
"10.92","26.00034","5.456867"
"10.99","25.92882","5.4915"
"11.06","25.95663","5.5268"
"11.13","25.95663","5.561533"
"11.2","25.97968","5.5966"
"11.27","25.95663","5.6318"
"11.34","25.98127","5.666234"
"11.41","25.9463","5.7018"
"11.48","25.95981","5.736533"
"11.55","25.95663","5.771667"
"11.62","25.97332","5.806667"
"11.69","25.95266","5.841567"
"11.76","25.96219","5.876934"
"11.83","25.95981","5.911334"
"11.9","25.94868","5.9468"
"11.97","25.94868","5.9814"
"12.04","25.95345","6.0167"
"12.11","25.94551","6.051767"
"12.18","25.95266","6.086467"
"12.25","25.94551","6.121833"
"12.32","25.94868","6.1566"
"12.39","25.95345","6.1916"
"12.46","25.94233","6.226567"
"12.53","25.95981","6.261533"
"12.6","25.97252","6.296767"
"12.67","25.96617","6.3314"
"12.74","25.95027","6.366833"
"12.81","25.93438","6.401567"
"12.88","25.94789","6.436567"
"12.95","25.94551","6.471667"
"13.02","25.95027","6.5065"
"13.09","25.94789","6.541733"
"13.16","25.95027","6.5765"
"13.23","25.93994","6.6118"
"13.3","25.95743","6.646567"
"13.37","25.94551","6.681633"
"13.44","25.95107","6.716867"
"13.51","25.94233","6.751433"
"13.58","25.94391","6.7868"
"13.65","25.93915","6.821533"
"13.72","25.95027","6.856467"
"13.79","25.94153","6.891734"
"13.86","25.94391","6.926467"
"13.93","25.93994","6.9619"
"14","25.95107","6.996334"
"14.07","25.93676","7.0319"
"14.14","25.94233","7.066433"
"14.21","25.95345","7.101667"
"14.28","25.94551","7.1368"
"14.35","25.95027","7.171367"
"14.42","25.94868","7.206933"
"14.49","25.95663","7.241533"
"14.56","25.94233","7.276767"
"14.63","25.93756","7.3115"
"14.7","25.95663","7.3466"
"14.77","25.92882","7.3819"
"14.84","25.94551","7.416267"
"14.91","25.95107","7.451833"
"14.98","25.94233","7.486367"
"15.05","25.93279","7.521634"
"15.12","25.93756","7.556667"
"15.19","25.9312","7.591533"
"15.26","25.93517","7.6269"
"15.33","25.95266","7.6615"
"15.4","25.95107","7.696733"
"15.47","25.9463","7.731433"
"15.54","25.96776","7.7667"
"15.61","25.95743","7.8017"
"15.68","25.93994","7.836433"
"15.75","25.93915","7.8719"
"15.82","25.95743","7.906533"
"15.89","25.95027","7.941567"
"15.96","25.93915","7.9767"
"16.03","25.93676","8.011567"
"16.1","25.93915","8.046833"
"16.17","25.93915","8.081367"
"16.24","25.94551","8.1168"
"16.31","25.92802","8.151533"
"16.38","25.9463","8.186666"
"16.45","25.94551","8.221733"
"16.52","25.95743","8.256467"
"16.59","25.95345","8.291767"
"16.66","25.93756","8.3265"
"16.73","25.95345","8.3617"
"16.8","25.92643","8.396566"
"16.87","25.94551","8.431666"
"16.94","25.95107","8.466833"
"17.01","25.95107","8.501433"
"17.08","25.94153","8.536867"
"17.15","25.95663","8.571433"
"17.22","25.94153","8.6066"
"17.29","25.93756","8.641733"
"17.36","25.94153","8.676367"
"17.43","25.94153","8.711967"
"17.5","25.9304","8.746333"
"17.57","25.93279","8.7819"
"17.64","25.94153","8.816466"
"17.71","25.9312","8.851666"
"17.78","25.92643","8.886766"
"17.85","25.93756","8.921333"
"17.92","25.94233","8.956867"
"17.99","25.93994","8.991467"
"18.06","25.95901","9.026733"
"18.13","25.94391","9.061633"
"18.2","25.93994","9.096601"
"18.25","25.93438","9.114634"