File: degradation_testing/tensile_testing/PLA/PLA_IPA/PLA-IPA-4.csv
"1 _ 1",,
"Time","Force","Stroke"
"sec","N","mm"
"0","0.4315376","0.0001"
"0.04","0.5197525","0.016"
"0.08","2.423922","0.03643334"
"0.12","5.224546","0.05643333"
"0.16","8.126895","0.07646666"
"0.2","10.82818","0.09676667"
"0.24","13.47224","0.1168"
"0.28","16.00981","0.1365667"
"0.32","18.44883","0.1564333"
"0.36","20.87275","0.1767333"
"0.4","23.2625","0.1968667"
"0.44","25.68086","0.2164"
"0.48","28.08014","0.2364"
"0.52","30.64156","0.2567333"
"0.56","33.0472","0.2768667"
"0.6","35.47033","0.2964333"
"0.64","37.49371","0.3164333"
"0.68","38.50381","0.3366667"
"0.72","38.68977","0.3569333"
"0.76","38.72951","0.3766"
"0.8","39.22939","0.3963333"
"0.84","40.52639","0.4166"
"0.88","42.4552","0.4368334"
"0.92","44.51434","0.4566333"
"0.96","46.3295","0.4763667"
"1","47.94359","0.4966334"
"1.04","49.59106","0.5167667"
"1.08","51.08913","0.5366667"
"1.12","53.09979","0.5565"
"1.16","55.66994","0.5765"
"1.2","58.7066","0.5968333"
"1.24","61.78777","0.6167667"
"1.28","64.57487","0.6365333"
"1.32","66.3654","0.6564"
"1.36","67.01072","0.6767"
"1.4","67.16093","0.6968667"
"1.44","67.10211","0.7163666"
"1.48","67.04728","0.7364666"
"1.52","67.45497","0.7567"
"1.56","67.36517","0.7768667"
"1.6","67.56862","0.7964666"
"1.64","67.72916","0.8164"
"1.68","68.13526","0.8365667"
"1.72","69.40126","0.8568667"
"1.76","70.76343","0.8765666"
"1.8","72.10732","0.8964"
"1.84","73.60856","0.9166"
"1.88","75.04145","0.9368667"
"1.92","76.588","0.9566666"
"1.96","78.84661","0.9763667"
"2","81.19027","0.9967334"
"2.04","83.25656","1.016867"
"2.08","85.76314","1.036633"
"2.12","88.52243","1.056467"
"2.16","91.06398","1.076467"
"2.2","93.58724","1.096733"
"2.24","96.19792","1.116767"
"2.28","98.72437","1.136633"
"2.32","101.1387","1.156367"
"2.36","103.4347","1.176667"
"2.4","105.7124","1.196767"
"2.44","107.8741","1.216433"
"2.48","109.9865","1.236467"
"2.52","112.1847","1.256667"
"2.56","114.4012","1.276767"
"2.6","116.5946","1.296467"
"2.64","118.6792","1.3164"
"2.68","120.8059","1.336667"
"2.72","122.9803","1.356867"
"2.76","125.0307","1.3765"
"2.8","126.9476","1.3964"
"2.84","128.7619","1.416633"
"2.88","130.3951","1.436933"
"2.92","132.2643","1.456667"
"2.96","134.0532","1.476333"
"3","135.8032","1.496633"
"3.04","137.5882","1.516833"
"3.08","139.3763","1.536733"
"3.12","141.1136","1.556533"
"3.16","142.7674","1.5765"
"3.2","144.4189","1.596767"
"3.24","146.0465","1.616733"
"3.28","147.628","1.6366"
"3.32","149.1062","1.6564"
"3.36","150.5907","1.676633"
"3.4","152.1659","1.6968"
"3.44","153.7188","1.7164"
"3.48","155.1294","1.7364"
"3.52","156.5591","1.756667"
"3.56","158.0548","1.776867"
"3.6","159.4543","1.796433"
"3.64","160.7593","1.8163"
"3.68","162.0722","1.836667"
"3.72","163.4026","1.856833"
"3.76","164.7162","1.8766"
"3.8","165.9417","1.896333"
"3.84","167.0925","1.916567"
"3.88","168.434","1.936833"
"3.92","169.8327","1.956667"
"3.96","170.9851","1.976433"
"4","172.0794","1.9967"
"4.04","173.3033","2.016833"
"4.08","174.4954","2.0367"
"4.12","175.5031","2.056567"
"4.16","176.5156","2.076533"
"4.2","177.6814","2.096733"
"4.24","178.7726","2.116733"
"4.28","179.7978","2.136633"
"4.32","180.7872","2.1564"
"4.36","181.8736","2.1768"
"4.4","182.9632","2.196867"
"4.44","183.9368","2.216367"
"4.48","184.7696","2.2365"
"4.52","185.6502","2.256667"
"4.56","186.5641","2.276767"
"4.6","187.455","2.2964"
"4.64","188.2736","2.3164"
"4.68","189.1001","2.336633"
"4.72","189.9791","2.356833"
"4.76","190.7905","2.376533"
"4.8","191.4954","2.3964"
"4.84","192.1543","2.416633"
"4.88","192.8345","2.436833"
"4.92","193.4966","2.456667"
"4.96","194.0362","2.476367"
"5","194.5424","2.4967"
"5.04","195.1472","2.516767"
"5.08","195.7289","2.536633"
"5.12","196.1748","2.5565"
"5.16","196.4426","2.5765"
"5.2","196.7279","2.596833"
"5.24","196.9854","2.616767"
"5.28","197.0569","2.636633"
"5.32","196.8495","2.656433"
"5.36","196.6174","2.676733"
"5.4","196.3019","2.696833"
"5.44","195.7464","2.716467"
"5.48","194.9843","2.7365"
"5.52","194.1411","2.756667"
"5.56","193.3161","2.776733"
"5.6","192.3402","2.7964"
"5.64","191.129","2.8165"
"5.68","189.573","2.836667"
"5.72","187.7514","2.856833"
"5.76","185.6049","2.876567"
"5.8","182.9449","2.896367"
"5.84","179.8526","2.916567"
"5.88","176.2795","2.936867"
"5.92","172.4656","2.956633"
"5.96","168.6009","2.976367"
"6","164.7202","2.996633"
"6.04","160.3468","3.0168"
"6.08","156.6895","3.0367"
"6.12","153.7315","3.056567"
"6.16","151.2146","3.0765"
"6.2","149.0831","3.096733"
"6.24","147.0971","3.116733"
"6.28","144.8838","3.136633"
"6.32","142.045","3.1564"
"6.36","139.1784","3.1767"
"6.4","136.2133","3.1968"
"6.44","132.8921","3.2165"
"6.48","128.7731","3.236533"
"6.52","125.0903","3.256767"
"6.56","122.4486","3.276833"
"6.6","120.012","3.296433"
"6.64","117.2503","3.316467"
"6.68","114.8287","3.336633"
"6.72","112.6575","3.356867"
"6.76","110.7605","3.376567"
"6.8","108.85","3.3963"
"6.84","106.9132","3.416633"
"6.88","104.9844","3.436833"
"6.92","102.7679","3.456667"
"6.96","100.2264","3.476433"
"7","97.54419","3.496633"
"7.04","94.81986","3.516733"
"7.08","92.49925","3.5367"
"7.12","90.58475","3.5565"
"7.16","88.67422","3.576467"
"7.2","86.75496","3.5968"
"7.24","84.41209","3.616767"
"7.28","81.81254","3.6365"
"7.32","79.47047","3.656467"
"7.36","77.56949","3.676733"
"7.4","75.67485","3.696833"
"7.44","73.57041","3.7164"
"7.48","71.5216","3.736433"
"7.52","69.54829","3.7567"
"7.56","67.21178","3.7768"
"7.6","64.30864","3.796467"
"7.64","61.09158","3.816467"
"7.68","55.23364","3.836667"
"7.72","31.62622","3.8569"
"7.76","26.93335","3.876567"
"7.8","26.68142","3.896367"
"7.84","26.62897","3.916733"
"7.88","26.62102","3.936833"
"7.92","26.3389","3.956633"
"7.96","26.21571","3.976267"
"8","26.11319","3.996667"
"8.04","26.71242","4.016733"
"8.08","26.80063","4.036667"
"8.12","26.61228","4.0565"
"8.16","26.43506","4.076433"
"8.2","26.67507","4.0968"
"8.24","26.84037","4.1168"
"8.28","26.86262","4.136533"
"8.32","26.84514","4.1564"
"8.36","26.88408","4.176733"
"8.4","26.84196","4.1968"
"8.44","26.78156","4.216467"
"8.48","26.70447","4.236467"
"8.52","26.62341","4.2567"
"8.56","26.66791","4.276834"
"8.6","26.73785","4.2964"
"8.64","26.74659","4.316433"
"8.68","26.7156","4.3367"
"8.72","26.66791","4.356867"
"8.76","26.67109","4.376567"
"8.8","26.59003","4.396333"
"8.84","26.48354","4.416634"
"8.88","26.5185","4.4369"
"8.92","26.59559","4.456667"
"8.96","26.59003","4.476367"
"9","26.55745","4.4967"
"9.04","26.57096","4.5168"
"9.08","26.58208","4.536767"
"9.12","26.58129","4.556467"
"9.16","26.55268","4.576467"
"9.2","26.57255","4.5968"
"9.24","26.59003","4.616734"
"9.28","26.55983","4.6365"
"9.32","26.54791","4.656434"
"9.36","26.56619","4.676733"
"9.4","26.58447","4.696867"
"9.44","26.57413","4.7164"
"9.48","26.5638","4.736434"
"9.52","26.54155","4.756733"
"9.56","26.50579","4.776834"
"9.6","26.44539","4.796367"
"9.64","26.47003","4.8164"
"9.68","26.51056","4.8366"
"9.72","26.5034","4.8569"
"9.76","26.46287","4.8766"
"9.8","26.49864","4.896333"
"9.84","26.52407","4.9167"
"9.88","26.54155","4.936867"
"9.92","26.50976","4.9567"
"9.96","26.62341","4.9764"
"10","26.68222","4.996567"
"10.04","26.69811","5.0167"
"10.08","26.74898","5.0367"
"10.12","26.74421","5.0565"
"10.16","26.75533","5.0765"
"10.2","26.73467","5.096833"
"10.24","26.7307","5.116734"
"10.28","26.73308","5.136567"
"10.32","26.72593","5.156367"
"10.36","26.7156","5.1767"
"10.39","26.70606","5.1872"