File: degradation_testing/tensile_testing/PLA/PLA_IPA/PLA-IPA-3.csv
"1 _ 1",,
"Time","Force","Stroke"
"sec","N","mm"
"0","0.7478396","0.0001"
"0.05","1.320839","0.02106667"
"0.1","11.03401","0.04633334"
"0.15","22.39307","0.0714"
"0.2","33.5598","0.0968"
"0.25","43.89048","0.1215333"
"0.3","51.69471","0.1464"
"0.35","54.90065","0.1716"
"0.4","56.21592","0.1968667"
"0.45","61.17503","0.2215333"
"0.5","67.55352","0.2466"
"0.55","71.47868","0.2718333"
"0.6","70.56078","0.2964667"
"0.65","70.89059","0.3214667"
"0.7","71.23152","0.3468"
"0.75","70.90887","0.3717"
"0.8","70.61005","0.3964"
"0.85","70.8588","0.4215667"
"0.9","71.31815","0.4467667"
"0.95","72.22414","0.4716"
"1","74.15374","0.4966334"
"1.05","75.87989","0.5219"
"1.1","83.11351","0.5463667"
"1.15","93.1708","0.5714334"
"1.2","99.71777","0.5968667"
"1.25","104.7611","0.6216"
"1.3","111.7055","0.6463667"
"1.35","121.754","0.6716"
"1.4","132.4828","0.6968"
"1.45","142.4559","0.7216"
"1.5","153.1005","0.7465667"
"1.55","163.8492","0.7718"
"1.6","174.8013","0.7964333"
"1.65","185.527","0.8215333"
"1.7","195.9554","0.8468667"
"1.75","205.903","0.8716"
"1.8","215.6385","0.8963667"
"1.85","223.9617","0.9216"
"1.9","229.2045","0.9468334"
"1.95","237.027","0.9715667"
"2","244.3496","0.9965333"
"2.05","251.6071","1.021867"
"2.1","258.7525","1.046533"
"2.15","265.5252","1.071467"
"2.2","272.2891","1.0969"
"2.25","278.5738","1.121667"
"2.3","284.3666","1.146533"
"2.35","290.1872","1.1716"
"2.4","296.1691","1.196733"
"2.45","302.1272","1.221567"
"2.5","307.6251","1.246533"
"2.55","312.86","1.271867"
"2.6","317.7556","1.2963"
"2.65","322.1425","1.321433"
"2.7","326.5031","1.346867"
"2.75","331.5576","1.371667"
"2.8","336.1909","1.3964"
"2.85","340.538","1.421567"
"2.9","344.6547","1.446767"
"2.95","348.2549","1.471667"
"3","351.3257","1.496567"
"3.05","354.2725","1.5219"
"3.1","356.8101","1.5464"
"3.15","358.5196","1.5714"
"3.2","360.5398","1.5969"
"3.25","362.4519","1.621567"
"3.3","363.7425","1.6464"
"3.35","365.4551","1.671567"
"3.4","366.9937","1.696833"
"3.45","367.9784","1.721533"
"3.5","368.8979","1.746567"
"3.55","370.1234","1.7719"
"3.6","370.8744","1.796433"
"3.65","371.6262","1.821433"
"3.7","372.471","1.846733"
"3.75","373.2006","1.8716"
"3.8","373.9222","1.896467"
"3.85","374.6128","1.921633"
"3.9","375.0571","1.9467"
"3.95","375.3964","1.9716"
"4","375.7326","1.9966"
"4.05","375.9503","2.021933"
"4.1","376.1546","2.046433"
"4.15","376.1299","2.0714"
"4.2","376.0489","2.0969"
"4.25","376.0672","2.1217"
"4.3","375.6658","2.146433"
"4.35","375.0841","2.1716"
"4.4","374.6629","2.1968"
"4.45","374.1701","2.221567"
"4.5","373.4636","2.246533"
"4.55","372.9478","2.271867"
"4.6","372.5251","2.2964"
"4.65","371.5698","2.3215"
"4.7","370.6877","2.346833"
"4.75","369.8699","2.371633"
"4.8","368.7207","2.396367"
"4.85","367.6462","2.421567"
"4.9","366.7863","2.4468"
"4.95","365.7023","2.4715"
"5","364.5476","2.496567"
"5.05","363.5987","2.5219"
"5.1","362.4384","2.546433"
"5.15","360.8799","2.5715"
"5.2","359.3779","2.5968"
"5.25","357.7995","2.621667"
"5.3","355.974","2.646367"
"5.35","354.0921","2.671633"
"5.4","352.1037","2.6968"
"5.45","349.714","2.721467"
"5.5","347.0492","2.746567"
"5.55","344.2534","2.7719"
"5.6","341.1063","2.796433"
"5.65","337.472","2.821467"
"5.7","333.5992","2.846767"
"5.75","329.3244","2.8716"
"5.8","324.1746","2.8964"
"5.85","318.114","2.921633"
"5.9","310.6173","2.946833"
"5.95","301.8562","2.9716"
"6","293.5942","2.996667"
"6.05","285.4737","3.0219"
"6.1","277.013","3.0464"
"6.15","268.1939","3.071433"
"6.2","259.7117","3.0968"
"6.25","250.9205","3.1216"
"6.3","242.0815","3.1464"
"6.35","233.082","3.171667"
"6.4","222.7704","3.196867"
"6.45","212.3396","3.2215"
"6.5","202.0176","3.2466"
"6.55","192.8099","3.271867"
"6.6","183.7786","3.296367"
"6.65","175.5373","3.321467"
"6.7","167.7783","3.346733"
"6.75","158.9235","3.371633"
"6.8","146.4287","3.396367"
"6.85","136.4207","3.421667"
"6.9","128.7508","3.4468"
"6.95","121.6038","3.471567"
"7","113.4396","3.496667"
"7.05","104.8541","3.5219"
"7.1","100.9091","3.5464"
"7.15","98.66873","3.571433"
"7.2","97.49731","3.596833"
"7.25","96.54363","3.621667"
"7.3","95.66784","3.646367"
"7.35","94.92953","3.671567"
"7.4","94.14752","3.696733"
"7.45","93.22008","3.721467"
"7.5","92.28786","3.746667"
"7.55","91.06874","3.771867"
"7.6","89.23372","3.796467"
"7.65","87.11099","3.8215"
"7.7","85.08205","3.846833"
"7.75","82.2711","3.8716"
"7.8","78.47945","3.8963"
"7.85","76.20891","3.9216"
"7.9","74.45256","3.946867"
"7.95","72.52216","3.971533"
"8","71.22755","3.9966"
"8.05","70.40024","4.021934"
"8.1","69.67307","4.046467"
"8.15","69.22722","4.071467"
"8.2","68.80602","4.0968"
"8.25","68.85052","4.1216"
"8.3","68.79488","4.146433"
"8.35","68.72177","4.1716"
"8.4","68.67011","4.1968"
"8.45","68.4921","4.221467"
"8.5","66.57442","4.246634"
"8.55","57.16562","4.271833"
"8.6","54.47785","4.2964"
"8.65","53.29847","4.321434"
"8.7","52.64918","4.346833"
"8.75","52.11671","4.371667"
"8.8","51.57232","4.396433"
"8.85","50.7776","4.421633"
"8.9","50.26023","4.4468"
"8.95","49.83425","4.471567"
"9","49.43768","4.496667"
"9.05","48.88455","4.521833"
"9.1","47.9118","4.5464"
"9.15","47.09244","4.5714"
"9.2","46.43679","4.596833"
"9.25","45.71199","4.621634"
"9.3","44.75991","4.646367"
"9.35","43.89048","4.671633"
"9.4","42.8319","4.6969"
"9.45","41.78365","4.721467"
"9.5","40.73302","4.746533"
"9.55","39.30251","4.771833"
"9.6","37.76471","4.796433"
"9.65","35.71272","4.821533"
"9.7","34.35056","4.846767"
"9.75","33.97703","4.871634"
"9.8","33.7863","4.896367"
"9.85","33.6647","4.921667"
"9.9","33.56616","4.946767"
"9.95","33.31423","4.971567"
"10","32.78812","4.996634"
"10.05","32.66335","5.0219"
"10.1","32.57116","5.046433"
"10.15","32.52506","5.0715"
"10.2","32.45115","5.0969"
"10.25","32.37804","5.121634"
"10.3","32.37804","5.1463"
"10.35","32.34386","5.1715"
"10.4","32.35579","5.196767"
"10.45","32.33989","5.221567"
"10.5","32.34227","5.246634"
"10.55","32.35181","5.271833"
"10.6","32.35738","5.296367"
"10.65","32.35499","5.321467"
"10.7","32.35181","5.346867"
"10.75","32.35499","5.371634"
"10.8","32.36612","5.396267"
"10.85","32.35102","5.421633"
"10.9","32.36453","5.4468"
"10.95","32.35102","5.471533"
"11","32.35181","5.496634"
"11.05","32.34943","5.521867"
"11.1","32.3534","5.546467"
"11.15","32.32638","5.571467"
"11.2","32.34227","5.596867"
"11.25","32.37088","5.6216"
"11.3","32.36055","5.6464"
"11.35","32.36612","5.671633"
"11.4","32.35181","5.696834"
"11.45","32.35817","5.721567"
"11.5","32.36612","5.7466"
"11.55","32.34625","5.771833"
"11.6","32.324","5.796333"
"11.65","32.34704","5.821434"
"11.7","32.33353","5.8469"
"11.75","32.34227","5.8717"
"11.8","32.34069","5.896333"
"11.85","32.36453","5.9216"
"11.9","32.35817","5.9468"
"11.95","32.3534","5.971567"
"12","32.35181","5.996567"
"12.05","32.36294","6.0218"
"12.1","32.3383","6.0464"
"12.13","32.34466","6.0575"