File: degradation_testing/tensile_testing/PLA/PLA_IPA/PLA-IPA-2.csv
"1 _ 1",,
"Time","Force","Stroke"
"sec","N","mm"
"0","0.149409","0.0001666667"
"0.04","0.3465017","0.0167"
"0.08","5.799929","0.0365"
"0.12","12.7085","0.05636667"
"0.16","17.72006","0.0767"
"0.2","19.07587","0.09683333"
"0.24","18.37095","0.1167"
"0.28","20.21948","0.1365"
"0.32","25.42734","0.1567"
"0.36","29.44231","0.1769"
"0.4","31.16528","0.1967"
"0.44","32.42493","0.2164333"
"0.48","35.07296","0.2366667"
"0.52","41.50947","0.257"
"0.56","44.38321","0.2766333"
"0.6","43.27933","0.2965667"
"0.64","43.33814","0.3164667"
"0.68","43.66954","0.3368"
"0.72","43.74822","0.3569333"
"0.76","43.49788","0.3766667"
"0.8","43.11164","0.3965"
"0.84","43.32622","0.4167"
"0.88","43.5694","0.4369"
"0.92","44.8974","0.4565667"
"0.96","47.29509","0.4764667"
"1","49.04429","0.4967"
"1.04","52.3599","0.5168"
"1.08","57.6814","0.5365"
"1.12","64.59713","0.5563334"
"1.16","70.54726","0.5767667"
"1.2","76.93688","0.5969"
"1.24","84.13235","0.6166667"
"1.28","91.03457","0.6364667"
"1.32","97.26206","0.6566"
"1.36","103.3529","0.6769333"
"1.4","110.2344","0.6967"
"1.44","116.4413","0.7165"
"1.48","121.4862","0.7366"
"1.52","127.6294","0.7569"
"1.56","134.6882","0.7766667"
"1.6","140.241","0.7966667"
"1.64","145.1794","0.8165"
"1.68","151.2933","0.8367667"
"1.72","157.3968","0.8568333"
"1.76","161.8306","0.8766"
"1.8","166.978","0.8964"
"1.84","172.8392","0.9165667"
"1.88","177.8269","0.9369"
"1.92","180.1451","0.9564"
"1.96","182.8337","0.9764667"
"2","187.4169","0.9967667"
"2.04","191.497","1.0169"
"2.08","195.7401","1.036567"
"2.12","199.8623","1.056467"
"2.16","203.7938","1.076767"
"2.2","207.7866","1.096867"
"2.24","211.5655","1.1167"
"2.28","215.1688","1.136467"
"2.32","218.7912","1.1566"
"2.36","222.3802","1.176733"
"2.4","225.8539","1.196667"
"2.44","229.2871","1.2165"
"2.48","232.5511","1.236667"
"2.52","235.8214","1.256933"
"2.56","238.9852","1.276733"
"2.6","241.9543","1.296633"
"2.64","244.7613","1.3166"
"2.68","247.6557","1.336767"
"2.72","250.5287","1.356867"
"2.76","253.2148","1.376533"
"2.8","255.6936","1.396367"
"2.84","258.2844","1.4167"
"2.88","260.9094","1.436933"
"2.92","263.1712","1.4564"
"2.96","265.2597","1.476533"
"3","267.3983","1.496667"
"3.04","269.5815","1.516833"
"3.08","271.9307","1.5365"
"3.12","274.1758","1.556433"
"3.16","276.3923","1.576767"
"3.2","278.6684","1.596867"
"3.24","280.7752","1.616667"
"3.28","282.7184","1.636533"
"3.32","284.6201","1.656733"
"3.36","286.5172","1.676833"
"3.4","288.2902","1.696767"
"3.44","289.8788","1.7165"
"3.48","291.2704","1.736567"
"3.52","292.7415","1.756967"
"3.56","294.3428","1.776667"
"3.6","295.7376","1.796567"
"3.64","297.0894","1.8165"
"3.68","298.5032","1.836767"
"3.72","299.9894","1.8569"
"3.76","301.3563","1.876633"
"3.8","302.3799","1.896433"
"3.84","303.3988","1.916633"
"3.88","304.5646","1.936933"
"3.92","305.7416","1.956467"
"3.96","306.658","1.9765"
"4","307.5512","1.996667"
"4.04","308.5955","2.0168"
"4.08","309.5563","2.036433"
"4.12","310.2938","2.056533"
"4.16","311.0583","2.076733"
"4.2","311.7967","2.0968"
"4.24","312.3776","2.1167"
"4.28","312.8314","2.136433"
"4.32","313.2995","2.156567"
"4.36","313.9011","2.176867"
"4.4","314.4956","2.196767"
"4.44","314.8373","2.2165"
"4.48","315.1226","2.236667"
"4.52","315.5414","2.2569"
"4.56","315.872","2.276733"
"4.6","315.9229","2.296633"
"4.64","315.7806","2.3166"
"4.68","315.6646","2.336767"
"4.72","315.5176","2.3568"
"4.76","315.3117","2.3766"
"4.8","314.9644","2.3964"
"4.84","314.6339","2.416633"
"4.88","314.2715","2.436867"
"4.92","313.6714","2.4565"
"4.96","312.9109","2.4765"
"5","312.0907","2.496833"
"5.04","311.319","2.516833"
"5.08","310.4035","2.5365"
"5.12","309.418","2.5564"
"5.16","308.4151","2.5767"
"5.2","307.5782","2.5969"
"5.24","306.6349","2.616633"
"5.28","305.3999","2.636367"
"5.32","304.1514","2.656633"
"5.36","302.9641","2.676833"
"5.4","301.644","2.6968"
"5.44","299.952","2.716567"
"5.48","297.9453","2.736633"
"5.52","295.7606","2.7569"
"5.56","293.5282","2.776733"
"5.6","290.8508","2.796567"
"5.64","288.0518","2.816467"
"5.68","285.1375","2.836833"
"5.72","281.9562","2.8569"
"5.76","278.2615","2.876567"
"5.8","274.0614","2.896433"
"5.84","269.7166","2.9167"
"5.88","265.0483","2.937"
"5.92","259.6291","2.956433"
"5.96","253.2681","2.976467"
"6","246.8363","2.996767"
"6.04","239.9325","3.0168"
"6.08","231.3964","3.036533"
"6.12","221.2143","3.056467"
"6.16","207.9145","3.076733"
"6.2","184.5368","3.096933"
"6.24","146.0425","3.1167"
"6.28","129.8547","3.136433"
"6.32","122.2658","3.156733"
"6.36","118.711","3.1768"
"6.4","116.1726","3.196733"
"6.44","114.3448","3.216433"
"6.48","112.7831","3.236633"
"6.52","111.1412","3.256833"
"6.56","109.81","3.2767"
"6.6","108.4797","3.2966"
"6.64","107.0793","3.3165"
"6.68","105.3031","3.336867"
"6.72","103.6286","3.356933"
"6.76","102.3118","3.376567"
"6.8","101.0497","3.396433"
"6.84","99.68042","3.4167"
"6.88","98.22448","3.436933"
"6.92","96.8941","3.456467"
"6.96","95.56532","3.476467"
"7","94.23653","3.496733"
"7.04","92.57714","3.516833"
"7.08","90.73416","3.536533"
"7.12","88.85065","3.5564"
"7.16","87.17537","3.576767"
"7.2","85.41902","3.596867"
"7.24","83.11351","3.616667"
"7.28","79.99023","3.636467"
"7.32","77.15463","3.656667"
"7.36","74.5527","3.6769"
"7.4","71.92532","3.696767"
"7.44","68.95145","3.716533"
"7.48","65.48405","3.736567"
"7.52","62.07545","3.756833"
"7.56","58.3307","3.776767"
"7.6","53.61001","3.7966"
"7.64","47.82279","3.8164"
"7.68","42.46076","3.836833"
"7.72","23.86014","3.856833"
"7.76","4.216035","3.8766"
"7.8","4.172325","3.896433"
"7.84","4.180273","3.916733"
"7.88","4.194578","3.9369"
"7.92","4.210472","3.9565"
"7.96","4.229546","3.976467"
"8","4.258156","3.996833"
"8.04","4.239082","4.0168"
"8.08","4.283587","4.0365"
"8.12","4.276434","4.0564"
"8.16","4.267693","4.0767"
"8.2","4.251798","4.096867"
"8.24","4.223188","4.116734"
"8.28","4.177888","4.136434"
"8.32","4.196167","4.156633"
"8.36","4.21842","4.176867"
"8.4","4.227161","4.1968"
"8.44","4.251798","4.2165"
"8.48","4.277229","4.236633"
"8.52","4.278819","4.2569"
"8.56","4.287561","4.2766"
"8.6","4.283587","4.296566"
"8.64","4.263719","4.3165"
"8.68","4.277229","4.336867"
"8.72","4.232725","4.356867"
"8.76","4.234314","4.3766"
"8.8","4.196962","4.3964"
"8.84","4.20014","4.416667"
"8.88","4.239082","4.436934"
"8.92","4.258951","4.4564"
"8.96","4.276434","4.476433"
"9","4.280408","4.4967"
"9.04","4.301866","4.516867"
"9.08","4.285971","4.536567"
"9.12","4.301071","4.5565"
"9.16","4.267693","4.576766"
"9.2","4.274845","4.596867"
"9.24","4.262924","4.616734"
"9.28","4.251798","4.636467"
"9.32","4.220804","4.656667"
"9.36","4.227161","4.676867"
"9.4","4.252593","4.696733"
"9.44","4.26054","4.716434"
"9.48","4.27405","4.7366"
"9.52","4.285971","4.756933"
"9.56","4.289945","4.776733"
"9.6","4.292329","4.796566"
"9.64","4.309813","4.816534"
"9.68","4.289945","4.8368"
"9.72","4.26054","4.8569"
"9.76","4.239082","4.8766"
"9.8","4.23034","4.896467"
"9.84","4.232725","4.9166"
"9.88","4.214446","4.9369"
"9.92","4.223188","4.9565"
"9.96","4.254182","4.976533"
"10","4.250208","4.996634"
"10.04","4.281203","5.016833"
"10.08","4.276434","5.036467"
"10.12","4.283587","5.0565"
"10.16","4.292329","5.0767"
"10.2","4.294713","5.096833"
"10.24","4.27405","5.1167"
"10.28","4.249414","5.136467"
"10.32","4.243056","5.156667"
"10.36","4.23193","5.176933"
"10.4","4.225572","5.196733"
"10.44","4.238287","5.2165"
"10.48","4.240672","5.236633"
"10.52","4.265308","5.256933"
"10.56","4.267693","5.276667"
"10.6","4.296303","5.2952"
"10.61","4.292329","5.296267"