File: degradation_testing/tensile_testing/PLA/PLA_Control/P-run-3.csv
"1 _ 1",,
"Time","Force","Stroke"
"sec","N","mm"
"0","0.1517932","0.0001333333"
"0.04","0.6469091","0.0165"
"0.08","10.64618","0.0369"
"0.12","25.59185","0.05643333"
"0.16","39.62119","0.07636667"
"0.2","53.27145","0.09663334"
"0.24","59.38053","0.1169333"
"0.28","59.48226","0.1365667"
"0.32","59.49815","0.1563667"
"0.36","59.54742","0.1767333"
"0.4","59.57365","0.1968"
"0.44","59.58557","0.2166333"
"0.48","59.54266","0.2365"
"0.52","59.55378","0.2567333"
"0.56","59.5808","0.2768"
"0.6","59.56888","0.2968"
"0.64","59.5514","0.3165667"
"0.68","59.68968","0.3365"
"0.72","59.74293","0.3569"
"0.76","59.74134","0.3767333"
"0.8","59.72544","0.3966667"
"0.84","59.76359","0.4165334"
"0.88","59.83989","0.4369333"
"0.92","60.01155","0.4567667"
"0.96","66.56965","0.4765334"
"1","77.07516","0.4965"
"1.04","86.5078","0.5167333"
"1.08","98.94053","0.5368333"
"1.12","112.2896","0.5564667"
"1.16","125.3144","0.5763667"
"1.2","139.2047","0.5966"
"1.24","152.7913","0.6169333"
"1.28","166.1507","0.6365667"
"1.32","179.4299","0.6563333"
"1.36","192.5651","0.6767667"
"1.4","205.6988","0.6967667"
"1.44","218.5901","0.7166333"
"1.48","231.1866","0.7364333"
"1.52","243.6574","0.7567"
"1.56","256.1156","0.7767667"
"1.6","268.3727","0.7968333"
"1.64","280.4176","0.8165666"
"1.68","292.0969","0.8364"
"1.72","303.7151","0.8568333"
"1.76","315.1894","0.8767334"
"1.8","326.4276","0.8966"
"1.84","337.3154","0.9165334"
"1.88","348.0577","0.9368667"
"1.92","358.7453","0.9566666"
"1.96","369.0132","0.9764333"
"2","378.7907","0.9964667"
"2.04","388.0676","1.0167"
"2.08","396.8445","1.036967"
"2.12","405.1987","1.056533"
"2.16","412.8543","1.076467"
"2.2","420.4377","1.096633"
"2.24","427.9375","1.117033"
"2.28","435.1449","1.136567"
"2.32","441.8619","1.1564"
"2.36","448.4614","1.1767"
"2.4","455.3501","1.196633"
"2.44","462.1156","1.216633"
"2.48","468.5052","1.236433"
"2.52","474.565","1.256667"
"2.56","480.6137","1.276867"
"2.6","486.385","1.2968"
"2.64","491.705","1.316567"
"2.68","496.5289","1.3365"
"2.72","501.2099","1.356867"
"2.76","505.8281","1.376733"
"2.8","510.1037","1.396567"
"2.84","513.8961","1.416533"
"2.88","517.683","1.4369"
"2.92","521.4644","1.4567"
"2.96","524.9675","1.476467"
"3","528.113","1.4965"
"3.04","531.1505","1.5167"
"3.08","534.1093","1.536967"
"3.12","536.5976","1.556567"
"3.16","538.6527","1.576467"
"3.2","540.7191","1.5966"
"3.24","542.7949","1.617067"
"3.28","544.7459","1.6365"
"3.32","546.0453","1.6564"
"3.36","547.328","1.676733"
"3.4","548.6202","1.696767"
"3.44","549.701","1.716633"
"3.48","550.2971","1.736467"
"3.52","550.6229","1.756667"
"3.56","550.8661","1.776833"
"3.6","550.9138","1.7968"
"3.64","550.375","1.8165"
"3.68","549.0693","1.836467"
"3.72","547.1246","1.856867"
"3.76","544.262","1.8767"
"3.8","540.2653","1.896633"
"3.84","535.6455","1.916533"
"3.88","531.0591","1.9369"
"3.92","526.882","1.956833"
"3.96","522.6819","1.9765"
"4","518.5803","1.9965"
"4.04","514.9102","2.0166"
"4.08","511.6892","2.036933"
"4.12","508.5524","2.056533"
"4.16","505.3075","2.076333"
"4.2","502.4195","2.096633"
"4.24","500.0003","2.117033"
"4.28","497.5168","2.1366"
"4.32","494.6653","2.1564"
"4.36","491.8814","2.176767"
"4.4","489.5226","2.196733"
"4.44","487.1655","2.216667"
"4.48","484.6287","2.236433"
"4.52","482.1499","2.256667"
"4.56","479.9739","2.276833"
"4.6","477.7996","2.296833"
"4.64","475.3828","2.316433"
"4.68","472.703","2.3366"
"4.72","470.3069","2.356867"
"4.76","467.8384","2.376733"
"4.8","465.2063","2.3966"
"4.84","462.3326","2.4165"
"4.88","459.5041","2.436867"
"4.92","456.8656","2.456733"
"4.96","453.9879","2.476467"
"5","450.7263","2.4965"
"5.04","447.3535","2.5167"
"5.08","444.1142","2.537"
"5.12","440.5332","2.5565"
"5.16","436.6898","2.576367"
"5.2","433.2097","2.596633"
"5.24","430.1938","2.617033"
"5.28","426.9107","2.636533"
"5.32","422.891","2.656367"
"5.36","418.6853","2.676733"
"5.4","414.2586","2.696667"
"5.44","409.3289","2.7167"
"5.48","403.0045","2.736467"
"5.52","394.8132","2.7567"
"5.56","385.073","2.776833"
"5.6","374.6931","2.7969"
"5.64","363.5573","2.816467"
"5.68","351.936","2.8365"
"5.72","338.8858","2.8569"
"5.76","320.8184","2.8767"
"5.8","301.7974","2.8966"
"5.84","286.332","2.916533"
"5.88","272.1397","2.936867"
"5.92","256.0639","2.9568"
"5.96","240.0398","2.9765"
"6","227.9099","2.996567"
"6.04","220.1605","3.0167"
"6.08","214.3574","3.036967"
"6.12","208.3135","3.056533"
"6.16","204.0664","3.0764"
"6.2","201.1029","3.096667"
"6.24","198.8022","3.117"
"6.28","195.7591","3.136567"
"6.32","191.3079","3.1564"
"6.36","186.8049","3.176833"
"6.4","181.4429","3.1967"
"6.44","174.9523","3.216633"
"6.48","166.1205","3.236433"
"6.52","157.9921","3.256667"
"6.56","150.7092","3.2768"
"6.6","141.5126","3.296767"
"6.64","132.4495","3.3165"
"6.68","123.7686","3.336533"
"6.72","119.3476","3.3569"
"6.76","115.7014","3.376833"
"6.8","112.9468","3.396567"
"6.84","110.7844","3.4166"
"6.88","109.5494","3.436867"
"6.92","108.5424","3.456767"
"6.96","107.7994","3.476467"
"7","106.8568","3.496467"
"7.04","104.6673","3.516667"
"7.08","100.7326","3.536933"
"7.12","97.76036","3.5565"
"7.16","96.10017","3.576333"
"7.2","94.95815","3.596667"
"7.24","93.52128","3.617"
"7.28","92.57079","3.6366"
"7.32","91.93818","3.656367"
"7.36","91.05682","3.676767"
"7.4","89.65334","3.696733"
"7.44","88.75688","3.716667"
"7.48","88.27209","3.736433"
"7.52","87.28504","3.756633"
"7.56","86.14302","3.776867"
"7.6","85.02245","3.7968"
"7.64","84.50111","3.8165"
"7.68","84.21819","3.836533"
"7.72","84.01076","3.856867"
"7.76","83.51485","3.876767"
"7.8","82.5127","3.896533"
"7.84","81.954","3.9165"
"7.88","81.4867","3.9369"
"7.92","80.67767","3.956767"
"7.96","79.36796","3.976467"
"8","77.81744","3.9965"
"8.04","76.84549","4.016767"
"8.08","75.90929","4.036933"
"8.12","74.05997","4.056567"
"8.16","71.38332","4.076367"
"8.2","67.25153","4.096667"
"8.24","60.94456","4.117"
"8.28","57.22443","4.1366"
"8.32","25.9908","4.156367"
"8.36","23.52794","4.176733"
"8.4","23.47549","4.1968"
"8.44","23.44052","4.2167"
"8.48","23.39602","4.2364"
"8.52","23.29588","4.256667"
"8.56","23.34515","4.2769"
"8.6","23.37058","4.296767"
"8.64","23.39125","4.316467"
"8.68","23.38886","4.336567"
"8.72","23.3976","4.356833"
"8.76","23.38409","4.376667"
"8.8","23.35628","4.396533"
"8.84","23.31813","4.416467"
"8.88","23.34833","4.4369"
"8.92","23.36184","4.456767"
"8.96","23.36423","4.4765"
"9","23.37535","4.496467"
"9.04","23.37535","4.516667"
"9.08","23.33721","4.536967"
"9.12","23.32052","4.556533"
"9.16","23.35628","4.576367"
"9.2","23.35787","4.596667"
"9.24","23.36661","4.616967"
"9.28","23.36184","4.6366"
"9.32","23.36502","4.6564"
"9.36","23.36661","4.676767"
"9.4","23.3674","4.6968"
"9.44","23.36661","4.716667"
"9.48","23.3531","4.736367"
"9.52","23.35946","4.756633"
"9.56","23.34515","4.776834"
"9.6","23.34674","4.7968"
"9.64","23.33721","4.8165"
"9.68","23.35151","4.836567"
"9.72","23.34038","4.856934"
"9.76","23.33085","4.8767"
"9.8","23.34515","4.896567"
"9.84","23.34277","4.9165"
"9.88","23.35151","4.9368"
"9.92","23.34197","4.956833"
"9.96","23.35072","4.976467"
"10","23.35548","4.996467"
"10.04","23.35072","5.016634"
"10.08","23.35628","5.036967"
"10.12","23.33323","5.056467"
"10.16","23.34436","5.076367"
"10.2","23.3539","5.096633"
"10.24","23.35946","5.116967"
"10.28","23.34038","5.136567"
"10.32","23.34674","5.1558"
"10.33","23.35787","5.157633"