File: degradation_testing/tensile_testing/PLA/PLA_Control/P-run-4.csv
"1 _ 1",,
"Time","Force","Stroke"
"sec","N","mm"
"0","0.1279513","0.0001"
"0.03","0.1271566","0.01076667"
"0.06","2.432664","0.0262"
"0.09","11.30978","0.0416"
"0.12","22.08471","0.05633333"
"0.15","32.2175","0.07133333"
"0.18","41.23926","0.0866"
"0.21","47.76955","0.1018"
"0.24","50.17916","0.1168333"
"0.27","50.17678","0.1315667"
"0.3","51.17814","0.1465333"
"0.33","51.9832","0.1615667"
"0.36","52.06108","0.1766"
"0.39","52.93925","0.1918333"
"0.42","55.6771","0.2068"
"0.45","55.68107","0.2215"
"0.48","55.70173","0.2363333"
"0.51","55.70094","0.2515333"
"0.54","55.69935","0.2667667"
"0.57","55.67233","0.2819667"
"0.6","55.72875","0.2966667"
"0.63","55.69061","0.3115667"
"0.66","55.66359","0.3263333"
"0.69","55.65882","0.3417"
"0.72","55.67233","0.3568"
"0.75","55.67868","0.3717667"
"0.78","55.71206","0.3863667"
"0.81","55.88611","0.4014"
"0.84","56.00214","0.4165667"
"0.87","56.42176","0.4316333"
"0.9","61.20126","0.4468333"
"0.93","70.48845","0.4617333"
"0.96","78.2299","0.4766"
"0.99","83.1453","0.4914"
"1.02","86.09056","0.5066667"
"1.05","89.18842","0.5218"
"1.08","94.29932","0.5368"
"1.11","101.9883","0.5514"
"1.14","111.4718","0.5663667"
"1.17","122.0751","0.5815"
"1.2","132.3922","0.5966667"
"1.23","142.1229","0.6117667"
"1.26","151.4594","0.6266"
"1.29","161.0955","0.6414"
"1.32","171.0041","0.6563666"
"1.35","180.8047","0.6716334"
"1.38","190.8946","0.6868667"
"1.41","200.8867","0.7019333"
"1.44","210.5514","0.7166"
"1.47","219.8307","0.7315667"
"1.5","229.1584","0.7463334"
"1.53","238.5855","0.7616333"
"1.56","248.1747","0.7769"
"1.59","257.7114","0.7917667"
"1.62","266.9954","0.8064333"
"1.65","276.0077","0.8213"
"1.68","285.0501","0.8366667"
"1.71","294.2848","0.8519334"
"1.74","303.6062","0.8667334"
"1.77","312.6295","0.8816"
"1.8","321.4701","0.8965334"
"1.83","330.3115","0.9114667"
"1.86","339.1234","0.9266"
"1.89","347.7979","0.9418333"
"1.92","356.1671","0.9567333"
"1.95","364.3242","0.9714333"
"1.98","372.1833","0.9862"
"2.01","380.2268","1.0015"
"2.04","388.511","1.016733"
"2.07","396.8406","1.031867"
"2.1","405.0151","1.046667"
"2.13","413.0125","1.061533"
"2.16","420.7031","1.076433"
"2.19","428.1902","1.091733"
"2.22","435.5709","1.1069"
"2.25","442.8768","1.121667"
"2.28","449.6145","1.1364"
"2.31","455.509","1.1513"
"2.34","460.6032","1.166567"
"2.37","465.3684","1.181667"
"2.4","469.8841","1.1968"
"2.43","473.8649","1.211633"
"2.46","477.5747","1.226633"
"2.49","481.0302","1.2413"
"2.52","484.5365","1.2566"
"2.55","488.0619","1.271767"
"2.58","491.5396","1.286833"
"2.61","494.8592","1.3015"
"2.64","497.9356","1.3164"
"2.67","500.8825","1.331567"
"2.7","503.5909","1.346733"
"2.73","506.2803","1.361767"
"2.76","508.8401","1.3767"
"2.79","511.1734","1.391433"
"2.82","513.2667","1.406533"
"2.85","515.3521","1.421633"
"2.88","517.4184","1.4368"
"2.91","519.4354","1.451933"
"2.94","521.3086","1.4666"
"2.97","522.8599","1.481467"
"3","524.3198","1.496367"
"3.03","525.794","1.5115"
"3.06","527.4709","1.5268"
"3.09","528.9523","1.5417"
"3.12","530.1873","1.556467"
"3.15","531.0774","1.5714"
"3.18","531.8491","1.586733"
"3.21","532.6176","1.6019"
"3.24","533.4401","1.616767"
"3.27","534.0711","1.631533"
"3.3","534.4312","1.646433"
"3.33","534.6282","1.6614"
"3.36","534.7117","1.676633"
"3.39","534.6441","1.691767"
"3.42","533.9217","1.706733"
"3.45","532.5532","1.721533"
"3.48","530.5465","1.7364"
"3.51","528.2553","1.7515"
"3.54","525.6438","1.766767"
"3.57","522.7685","1.781967"
"3.6","519.4307","1.7967"
"3.63","515.6398","1.8115"
"3.66","511.4595","1.826467"
"3.69","507.2101","1.8417"
"3.72","502.9321","1.856767"
"3.75","498.6087","1.8717"
"3.78","494.0414","1.8864"
"3.81","489.277","1.901433"
"3.84","484.5365","1.916533"
"3.87","480.0375","1.931733"
"3.9","475.746","1.946867"
"3.93","471.3972","1.961833"
"3.96","466.9404","1.976667"
"3.99","462.3119","1.991367"
"4.02","457.7072","2.0066"
"4.05","453.3887","2.021867"
"4.08","449.2911","2.036833"
"4.11","445.0266","2.051433"
"4.14","440.1978","2.0664"
"4.17","435.2299","2.0815"
"4.2","430.6158","2.096767"
"4.23","426.4641","2.111733"
"4.26","422.6541","2.126667"
"4.29","419.0516","2.141467"
"4.32","415.4825","2.156467"
"4.35","412.2075","2.171667"
"4.38","409.1438","2.1868"
"4.41","406.4417","2.201933"
"4.44","404.0098","2.216633"
"4.47","401.6964","2.2315"
"4.5","399.6563","2.246367"
"4.53","397.7537","2.261533"
"4.56","395.4402","2.276833"
"4.59","392.944","2.2917"
"4.62","390.1831","2.306433"
"4.65","387.0885","2.321433"
"4.68","384.1599","2.336633"
"4.71","381.4419","2.351867"
"4.74","378.7295","2.3668"
"4.77","375.8486","2.381533"
"4.8","372.5473","2.3965"
"4.83","368.948","2.411533"
"4.86","365.4313","2.426667"
"4.89","361.9019","2.4418"
"4.92","358.3105","2.456767"
"4.95","354.9083","2.471533"
"4.98","351.7493","2.486267"
"5.01","348.9359","2.501533"
"5.04","345.9922","2.516767"
"5.07","342.288","2.5319"
"5.1","337.5506","2.5467"
"5.13","332.0861","2.561567"
"5.16","326.5436","2.5765"
"5.19","320.7803","2.591767"
"5.22","313.8924","2.606767"
"5.25","303.9066","2.621733"
"5.28","290.6728","2.636433"
"5.31","276.4495","2.651433"
"5.34","261.1915","2.666567"
"5.37","246.1577","2.681633"
"5.4","231.9686","2.696767"
"5.43","217.7429","2.711633"
"5.46","204.7928","2.726633"
"5.49","194.6759","2.741333"
"5.52","186.4362","2.756633"
"5.55","179.4346","2.771867"
"5.58","172.7573","2.7869"
"5.61","166.6482","2.801467"
"5.64","162.1874","2.816367"
"5.67","158.1295","2.831467"
"5.7","153.7991","2.8468"
"5.73","149.7126","2.861733"
"5.76","145.4298","2.876667"
"5.79","140.4643","2.891467"
"5.82","134.7526","2.906467"
"5.85","127.9354","2.921567"
"5.88","122.18","2.9368"
"5.91","117.6294","2.951933"
"5.94","114.6889","2.966633"
"5.97","112.2983","2.981367"
"6","109.4516","2.996533"
"6.03","106.8362","3.011567"
"6.06","104.4663","3.026767"
"6.09","102.7544","3.041733"
"6.12","101.0958","3.056467"
"6.15","99.32121","3.0714"
"6.18","97.26604","3.0867"
"6.21","94.95417","3.1018"
"6.24","92.06693","3.1168"
"6.27","88.90152","3.131633"
"6.3","83.55776","3.146467"
"6.33","76.95914","3.161467"
"6.36","71.04238","3.1767"
"6.39","65.55716","3.191833"
"6.42","59.87326","3.206767"
"6.45","54.6964","3.221533"
"6.48","38.4887","3.236333"
"6.51","19.83166","3.251567"
"6.54","19.37389","3.266767"
"6.57","19.24038","3.281967"
"6.6","19.17521","3.296667"
"6.63","19.24197","3.3115"
"6.66","19.29601","3.3264"
"6.69","19.30475","3.341633"
"6.72","19.28488","3.3567"
"6.75","19.28886","3.371733"
"6.78","19.33177","3.386433"
"6.81","19.32939","3.401433"
"6.84","19.30952","3.4165"
"6.87","19.3421","3.431733"
"6.9","19.32701","3.446867"
"6.93","19.30475","3.461833"
"6.96","19.2976","3.4765"
"6.99","19.30475","3.491367"
"7.02","19.29363","3.506633"
"7.05","19.24276","3.5218"
"7.08","19.1927","3.536767"
"7.11","19.22051","3.551433"
"7.14","19.29363","3.566333"
"7.17","19.29363","3.5815"
"7.2","19.30078","3.596767"
"7.23","19.29124","3.611767"
"7.26","19.31985","3.626667"
"7.29","19.33575","3.6415"
"7.32","19.3278","3.6564"
"7.35","19.3421","3.6717"
"7.38","19.32462","3.686867"
"7.41","19.33177","3.701867"
"7.44","19.32462","3.7166"
"7.47","19.29998","3.7315"
"7.5","19.29204","3.746367"
"7.53","19.27376","3.761567"
"7.56","19.24912","3.7769"
"7.59","19.26422","3.7917"
"7.62","19.28488","3.8065"
"7.65","19.28409","3.821367"
"7.68","19.29601","3.8367"
"7.71","19.30555","3.851867"
"7.74","19.30714","3.866667"
"7.77","19.32541","3.881567"
"7.8","19.3429","3.896533"
"7.83","19.33098","3.911467"
"7.86","19.30078","3.9266"
"7.89","19.30316","3.941767"
"7.92","19.31111","3.956767"
"7.95","19.3119","3.971467"
"7.98","19.29204","3.983333"
"7.99","19.28488","3.984"