File: degradation_testing/tensile_testing/PLA/PLA_Control/P-run-1.csv
"1 _ 1",,
"Time","Force","Stroke"
"sec","N","mm"
"0","-3.802776","0.0001"
"0.04","-3.466606","0.0157"
"0.08","4.328092","0.0361"
"0.12","19.13945","0.05653333"
"0.16","34.21307","0.07683334"
"0.2","47.70438","0.09636667"
"0.24","55.18198","0.1164"
"0.28","54.3642","0.1367"
"0.32","51.19165","0.1568667"
"0.36","52.61183","0.1764667"
"0.4","58.6621","0.1964667"
"0.44","58.62236","0.2166"
"0.48","58.4952","0.2369"
"0.52","58.59296","0.2566"
"0.56","59.0388","0.2763667"
"0.6","58.89893","0.2966"
"0.64","58.78925","0.3169333"
"0.68","58.74872","0.3366333"
"0.72","58.67561","0.3563333"
"0.76","58.70183","0.3766"
"0.8","58.83773","0.3969"
"0.84","58.99668","0.4167"
"0.88","60.79753","0.4364333"
"0.92","66.77866","0.4565333"
"0.96","72.47527","0.4767667"
"1","78.6368","0.4967333"
"1.04","83.63803","0.5166"
"1.08","91.51141","0.5364"
"1.12","103.1693","0.5566"
"1.16","116.7202","0.5768"
"1.2","130.1694","0.5963666"
"1.24","143.9333","0.6164667"
"1.28","158.0771","0.6366"
"1.32","171.9634","0.6567333"
"1.36","186.127","0.6763667"
"1.4","200.0403","0.6964"
"1.44","213.9044","0.7166667"
"1.48","228.099","0.7368667"
"1.52","241.8971","0.7566333"
"1.56","255.15","0.7763667"
"1.6","268.4299","0.7967"
"1.64","281.8886","0.8168667"
"1.68","295.2592","0.8367"
"1.72","308.1202","0.8563"
"1.76","320.828","0.8766"
"1.8","333.6596","0.8968334"
"1.84","346.3141","0.9166667"
"1.88","358.7556","0.9365333"
"1.92","371.0063","0.9565"
"1.96","383.4065","0.9767333"
"2","395.6079","0.9967334"
"2.04","407.4073","1.0166"
"2.08","418.6384","1.0363"
"2.12","429.1757","1.056667"
"2.16","439.3983","1.076833"
"2.2","449.1568","1.096367"
"2.24","458.0609","1.1164"
"2.28","466.5089","1.1367"
"2.32","474.6501","1.1568"
"2.36","481.751","1.1764"
"2.4","487.6359","1.1963"
"2.44","492.5831","1.216633"
"2.48","496.8071","1.236833"
"2.52","500.4811","1.256533"
"2.56","503.8428","1.2764"
"2.6","507.373","1.296533"
"2.64","510.9835","1.316833"
"2.68","514.5272","1.336733"
"2.72","517.5201","1.3564"
"2.76","519.9758","1.3767"
"2.8","522.3696","1.396867"
"2.84","524.644","1.4167"
"2.88","526.5021","1.436533"
"2.92","528.179","1.4565"
"2.96","529.9091","1.476733"
"3","531.5383","1.496733"
"3.04","532.9696","1.516633"
"3.08","534.0226","1.5363"
"3.12","535.1901","1.556633"
"3.16","536.569","1.576833"
"3.2","537.502","1.596433"
"3.24","537.61","1.616433"
"3.28","537.494","1.636733"
"3.32","537.258","1.656733"
"3.36","535.9594","1.676367"
"3.4","533.5117","1.696367"
"3.44","530.262","1.7166"
"3.48","526.5188","1.7368"
"3.52","522.2463","1.756567"
"3.56","517.5026","1.7764"
"3.6","512.8837","1.796633"
"3.64","508.5214","1.816933"
"3.68","504.1846","1.8366"
"3.72","499.347","1.8564"
"3.76","494.6494","1.876633"
"3.8","490.0845","1.896833"
"3.84","485.4004","1.9166"
"3.88","480.121","1.9365"
"3.92","474.5984","1.956467"
"3.96","469.1092","1.9768"
"4","463.6296","1.996833"
"4.04","457.8225","2.016667"
"4.08","451.7245","2.036333"
"4.12","446.0208","2.056667"
"4.16","441.0203","2.076867"
"4.2","436.0501","2.096433"
"4.24","430.7596","2.1164"
"4.28","426.0182","2.136767"
"4.32","422.1241","2.156767"
"4.36","418.4691","2.1764"
"4.4","415.2083","2.196433"
"4.44","412.4085","2.216633"
"4.48","410.0664","2.2369"
"4.52","407.5925","2.256567"
"4.56","404.8769","2.276333"
"4.6","402.7343","2.296567"
"4.64","401.14","2.316833"
"4.68","399.9416","2.336633"
"4.72","398.4435","2.356333"
"4.76","396.8962","2.376567"
"4.8","395.6032","2.3968"
"4.84","394.2458","2.416667"
"4.88","392.0229","2.4365"
"4.92","389.7691","2.456467"
"4.96","387.8268","2.4768"
"5","386.0458","2.4968"
"5.04","383.7633","2.516567"
"5.08","381.4324","2.5364"
"5.12","379.4416","2.556667"
"5.16","377.7218","2.576833"
"5.2","375.8867","2.5964"
"5.24","373.6687","2.6165"
"5.28","371.6779","2.6367"
"5.32","369.4749","2.656867"
"5.36","365.9836","2.676433"
"5.4","362.2556","2.696367"
"5.44","358.8112","2.716567"
"5.48","355.8596","2.7368"
"5.52","352.8039","2.756633"
"5.56","348.7213","2.776333"
"5.6","344.4998","2.7966"
"5.64","340.1987","2.8168"
"5.68","335.0846","2.8367"
"5.72","328.7292","2.8564"
"5.76","321.6807","2.876667"
"5.8","315.9586","2.896733"
"5.84","310.653","2.916567"
"5.88","305.3602","2.9365"
"5.92","301.2204","2.956433"
"5.96","297.5369","2.9768"
"6","293.3192","2.996767"
"6.04","288.9124","3.0165"
"6.08","283.8898","3.036367"
"6.12","279.7628","3.0567"
"6.16","275.108","3.0769"
"6.2","268.5539","3.0964"
"6.24","262.715","3.116433"
"6.28","256.78","3.136767"
"6.32","250.9793","3.1568"
"6.36","243.7019","3.1765"
"6.4","233.3967","3.196433"
"6.44","219.7941","3.2166"
"6.48","208.3421","3.236867"
"6.52","194.9239","3.256633"
"6.56","184.6568","3.2763"
"6.6","176.7683","3.296667"
"6.64","170.7299","3.316867"
"6.68","166.1507","3.336667"
"6.72","160.8014","3.356333"
"6.76","152.0856","3.376567"
"6.8","146.354","3.3967"
"6.84","141.6866","3.416667"
"6.88","137.2051","3.4365"
"6.92","133.6789","3.4565"
"6.96","131.7604","3.4768"
"7","130.0915","3.4968"
"7.04","127.5277","3.5165"
"7.08","124.2097","3.536333"
"7.12","120.7995","3.556633"
"7.16","117.2368","3.576767"
"7.2","111.6451","3.596367"
"7.24","103.8289","3.616433"
"7.28","97.32565","3.636767"
"7.32","92.68761","3.656833"
"7.36","86.0699","3.6764"
"7.4","78.88953","3.696467"
"7.44","73.52591","3.716667"
"7.48","69.27888","3.7369"
"7.52","64.23394","3.7566"
"7.56","57.71875","3.776367"
"7.6","26.60831","3.796667"
"7.64","22.56711","3.816867"
"7.68","22.40419","3.8366"
"7.72","22.26988","3.856367"
"7.76","22.22379","3.8767"
"7.8","22.223","3.8967"
"7.84","22.22061","3.9166"
"7.88","22.22141","3.936467"
"7.92","22.24922","3.956467"
"7.96","22.26114","3.976733"
"8","22.27624","3.9967"
"8.04","22.29214","4.016533"
"8.08","22.32552","4.036467"
"8.12","22.32393","4.056667"
"8.16","22.30326","4.0769"
"8.2","22.30088","4.0964"
"8.24","22.26114","4.116367"
"8.28","22.21902","4.136667"
"8.32","22.20472","4.1568"
"8.36","22.21266","4.176467"
"8.4","22.24286","4.196333"
"8.44","22.2381","4.2166"
"8.48","22.26114","4.236867"
"8.52","22.29452","4.256633"
"8.56","22.31677","4.276333"
"8.6","22.33903","4.2967"
"8.64","22.30962","4.316833"
"8.68","22.29849","4.336733"
"8.72","22.28578","4.3564"
"8.76","22.24286","4.376667"
"8.8","22.25002","4.396733"
"8.84","22.22935","4.416667"
"8.88","22.24286","4.4365"
"8.92","22.24286","4.4565"
"8.96","22.27624","4.4768"
"9","22.28578","4.4968"
"9.04","22.29691","4.516567"
"9.08","22.31916","4.536367"
"9.12","22.30167","4.556667"
"9.16","22.31201","4.576867"
"9.2","22.29691","4.5964"
"9.24","22.27386","4.616367"
"9.28","22.27227","4.6367"
"9.32","22.2524","4.6568"
"9.36","22.2381","4.6764"
"9.4","22.24048","4.6964"
"9.44","22.26353","4.716633"
"9.47","22.26353","4.726133"