File: degradation_testing/tensile_testing/PLA/PLA_Control/P-run-2.csv
"1 _ 1",,
"Time","Force","Stroke"
"sec","N","mm"
"0","-3.696283","6.666667E-05"
"0.03","-3.64701","0.01086667"
"0.06","-1.015663","0.02603333"
"0.09","9.123485","0.04123333"
"0.12","21.15011","0.05656667"
"0.15","32.2334","0.07173333"
"0.18","40.49063","0.08673333"
"0.21","43.0433","0.1014"
"0.24","41.24006","0.1163667"
"0.27","41.48006","0.1314667"
"0.3","44.60653","0.1466333"
"0.33","46.4805","0.1619"
"0.36","46.58143","0.1767333"
"0.39","46.87786","0.1915667"
"0.42","46.93508","0.2063667"
"0.45","46.70222","0.2216667"
"0.48","46.76819","0.2368667"
"0.51","46.83733","0.2519667"
"0.54","46.93111","0.2665333"
"0.57","46.95177","0.2814"
"0.6","46.87945","0.2965"
"0.63","46.83971","0.3116667"
"0.66","46.81826","0.3267334"
"0.69","46.82859","0.3416667"
"0.72","46.89614","0.3565"
"0.75","46.95733","0.3714667"
"0.78","47.43338","0.3866333"
"0.81","49.69756","0.4018667"
"0.84","51.08516","0.417"
"0.87","52.95753","0.4317333"
"0.9","57.60114","0.4465"
"0.93","63.90969","0.4614334"
"0.96","70.46858","0.4765667"
"0.99","76.6937","0.4918667"
"1.02","82.91721","0.5067334"
"1.05","90.78344","0.5213667"
"1.08","100.5276","0.5363667"
"1.11","111.8223","0.5516"
"1.14","123.2402","0.5667667"
"1.17","133.9968","0.5818334"
"1.2","144.9196","0.5965667"
"1.23","155.948","0.6114333"
"1.26","166.7023","0.6264667"
"1.29","177.3747","0.6416333"
"1.32","187.9954","0.6567333"
"1.35","198.4866","0.6717667"
"1.38","208.8332","0.6864667"
"1.41","218.9056","0.7013667"
"1.44","228.9613","0.7164667"
"1.47","238.9272","0.7316334"
"1.5","249.0489","0.7470334"
"1.53","259.1364","0.7616333"
"1.56","268.9226","0.7765"
"1.59","278.3362","0.7914333"
"1.62","287.7371","0.8066667"
"1.65","297.2094","0.8218334"
"1.68","306.5483","0.8366667"
"1.71","315.3817","0.8514"
"1.74","323.569","0.8664333"
"1.77","331.6315","0.8815667"
"1.8","339.3308","0.8967"
"1.83","346.8156","0.9119"
"1.86","354.0921","0.9267667"
"1.89","360.9761","0.9416"
"1.92","367.4777","0.9563333"
"1.95","373.7593","0.9716"
"1.98","379.959","0.9868667"
"2.01","385.9075","1.001867"
"2.04","391.6764","1.016567"
"2.07","397.1299","1.031467"
"2.1","402.4625","1.046533"
"2.13","407.7109","1.061733"
"2.16","412.9624","1.076733"
"2.19","418.1449","1.0917"
"2.22","423.2915","1.106467"
"2.25","428.2236","1.121367"
"2.28","433.1295","1.136667"
"2.31","438.1792","1.151633"
"2.34","443.2694","1.166833"
"2.37","448.3136","1.181533"
"2.4","453.2433","1.196467"
"2.43","458.0561","1.211333"
"2.46","463.0121","1.226533"
"2.49","468.0761","1.241833"
"2.52","473.1536","1.2567"
"2.55","478.0761","1.2715"
"2.58","482.7205","1.286333"
"2.61","487.3705","1.301633"
"2.64","492.0745","1.316933"
"2.67","496.9454","1.331733"
"2.7","501.6859","1.3466"
"2.73","506.3271","1.361533"
"2.76","510.8992","1.376433"
"2.79","515.6096","1.391633"
"2.82","520.5631","1.4068"
"2.85","525.4937","1.421833"
"2.88","530.1897","1.436567"
"2.91","534.5885","1.451267"
"2.94","538.9031","1.4665"
"2.97","543.228","1.481667"
"3","547.4027","1.496933"
"3.03","551.153","1.5117"
"3.06","554.5084","1.5266"
"3.09","557.4584","1.541467"
"3.12","560.2869","1.556833"
"3.15","562.9412","1.571733"
"3.18","565.4502","1.586767"
"3.21","567.619","1.601467"
"3.24","569.3317","1.616433"
"3.27","570.4721","1.631533"
"3.3","570.8766","1.6467"
"3.33","570.2702","1.661933"
"3.36","567.3766","1.676767"
"3.39","560.9957","1.691567"
"3.42","551.3398","1.706333"
"3.45","539.5134","1.721633"
"3.48","526.2494","1.736867"
"3.51","512.0317","1.751933"
"3.54","497.1282","1.7665"
"3.57","482.1292","1.781433"
"3.6","468.1261","1.7964"
"3.63","456.0407","1.8117"
"3.66","446.3474","1.826667"
"3.69","438.6989","1.8417"
"3.72","432.6479","1.8565"
"3.75","427.8262","1.871433"
"3.78","424.1276","1.8866"
"3.81","421.3786","1.901867"
"3.84","419.4013","1.917"
"3.87","417.7451","1.9317"
"3.9","416.2272","1.9464"
"3.93","414.8221","1.961367"
"3.96","413.8168","1.976533"
"3.99","413.1595","1.9918"
"4.02","412.5818","2.006667"
"4.05","411.8633","2.021367"
"4.08","410.7444","2.036333"
"4.11","409.5348","2.051667"
"4.14","408.3331","2.0669"
"4.17","406.913","2.081833"
"4.2","404.8371","2.096633"
"4.23","402.2058","2.111533"
"4.26","399.0253","2.126467"
"4.29","395.7597","2.1417"
"4.32","392.5729","2.156833"
"4.35","389.0467","2.171867"
"4.38","385.1692","2.186467"
"4.41","380.6981","2.201333"
"4.44","375.4425","2.216533"
"4.47","369.2961","2.231767"
"4.5","361.7565","2.246933"
"4.53","352.2865","2.261767"
"4.56","342.0997","2.2766"
"4.59","332.6591","2.291533"
"4.62","324.5711","2.306767"
"4.65","317.9121","2.321733"
"4.68","311.923","2.3367"
"4.71","306.6071","2.351367"
"4.74","302.2885","2.3664"
"4.77","298.5199","2.381433"
"4.8","294.8594","2.396633"
"4.83","291.5088","2.411867"
"4.86","287.6949","2.426767"
"4.89","282.2479","2.441533"
"4.92","275.9123","2.456333"
"4.95","268.573","2.471667"
"4.98","260.1886","2.4869"
"5.01","251.1462","2.501967"
"5.04","240.7265","2.516533"
"5.07","229.3603","2.5314"
"5.1","218.3604","2.546467"
"5.13","209.2004","2.561767"
"5.16","201.3016","2.576767"
"5.19","194.718","2.591733"
"5.22","189.259","2.606433"
"5.25","184.2515","2.621367"
"5.28","180.1737","2.636633"
"5.31","176.661","2.651767"
"5.34","172.6906","2.6669"
"5.37","166.92","2.681633"
"5.4","160.7537","2.6966"
"5.43","154.5771","2.711433"
"5.46","146.3954","2.726667"
"5.49","134.0079","2.741867"
"5.52","122.997","2.756733"
"5.55","115.5583","2.771567"
"5.58","110.7136","2.786367"
"5.61","107.5657","2.8017"
"5.64","104.6324","2.816867"
"5.67","101.9009","2.831733"
"5.7","99.60493","2.846633"
"5.73","97.84142","2.861567"
"5.76","96.26309","2.876467"
"5.79","94.92239","2.891633"
"5.82","93.30034","2.906867"
"5.85","90.93047","2.9218"
"5.88","88.61542","2.936533"
"5.91","84.29289","2.9512"
"5.94","74.20381","2.966533"
"5.97","67.81419","2.981667"
"6","62.60554","2.996867"
"6.03","57.99055","3.011667"
"6.06","52.71435","3.026533"
"6.09","41.65173","3.041467"
"6.12","14.2916","3.056667"
"6.15","10.36088","3.071867"
"6.18","10.25359","3.0867"
"6.21","10.24008","3.101433"
"6.24","9.92775","3.1164"
"6.27","10.25518","3.131533"
"6.3","10.35213","3.1467"
"6.33","10.37598","3.1618"
"6.36","10.37439","3.176667"
"6.39","10.33783","3.191533"
"6.42","10.34975","3.206367"
"6.45","10.35849","3.221633"
"6.48","10.32432","3.236833"
"6.51","10.32273","3.251867"
"6.54","10.3577","3.266567"
"6.57","10.37836","3.281367"
"6.6","10.36723","3.296467"
"6.63","10.34657","3.311733"
"6.66","10.34657","3.326767"
"6.69","10.372","3.341733"
"6.72","10.36723","3.356533"
"6.75","10.36882","3.371433"
"6.78","10.37359","3.386667"
"6.81","10.38074","3.4018"
"6.84","10.37439","3.416967"
"6.87","10.36485","3.431667"
"6.9","10.34975","3.4465"
"6.93","10.34101","3.461433"
"6.96","10.34896","3.476567"
"6.99","10.34657","3.491833"
"7.02","10.35372","3.5067"
"7.05","10.34975","3.521367"
"7.08","10.34896","3.536333"
"7.11","10.34339","3.551633"
"7.14","10.36962","3.566833"
"7.17","10.37677","3.5818"
"7.2","10.36723","3.596567"
"7.23","10.37121","3.6115"
"7.26","10.36247","3.626467"
"7.29","10.37836","3.641633"
"7.32","10.37677","3.6568"
"7.35","10.35452","3.6718"
"7.38","10.33862","3.686467"
"7.41","10.34339","3.701367"
"7.44","10.35372","3.7165"
"7.47","10.35611","3.731667"
"7.5","10.35611","3.746967"
"7.53","10.35134","3.7617"
"7.56","10.34498","3.776567"
"7.59","10.35452","3.7915"
"7.62","10.36723","3.8067"
"7.65","10.38233","3.821867"
"7.68","10.37916","3.836733"
"7.71","10.38074","3.8514"
"7.74","10.38074","3.866367"
"7.77","10.38233","3.881533"
"7.8","10.37677","3.8967"
"7.83","10.35611","3.911833"
"7.86","10.36723","3.926833"
"7.89","10.36882","3.941567"
"7.91","10.35372","3.945067"