File: degradation_testing/tensile_testing/PLA/PLA_Control/P-run-5.csv
"1 _ 1",,
"Time","Force","Stroke"
"sec","N","mm"
"0","-3.889402","0.0001"
"0.05","-2.249082","0.0215"
"0.1","14.5491","0.04693333"
"0.15","33.67742","0.07143334"
"0.2","48.78362","0.09646667"
"0.25","50.62024","0.1218333"
"0.3","51.83379","0.1466667"
"0.35","54.44606","0.1714667"
"0.4","55.19946","0.1967333"
"0.45","54.62726","0.2218"
"0.5","54.74965","0.2465333"
"0.55","54.82038","0.2717333"
"0.6","54.75839","0.2970333"
"0.65","54.82356","0.3215333"
"0.7","54.91893","0.3465667"
"0.75","54.92131","0.3718"
"0.8","55.00873","0.3967"
"0.85","55.21854","0.4214333"
"0.9","63.28583","0.4467333"
"0.95","74.25229","0.4718667"
"1","82.46501","0.4964333"
"1.05","91.92864","0.5216"
"1.1","106.8481","0.5468667"
"1.15","124.7938","0.5714334"
"1.2","142.2461","0.5964667"
"1.25","159.9042","0.6218667"
"1.3","177.8976","0.6465"
"1.35","195.597","0.6714333"
"1.4","212.9722","0.6967"
"1.45","230.5094","0.7217667"
"1.5","247.492","0.7465"
"1.55","264.26","0.7716"
"1.6","281.4237","0.797"
"1.65","298.442","0.8215"
"1.7","314.8794","0.8465667"
"1.75","331.5179","0.8718"
"1.8","347.933","0.8967"
"1.85","363.6853","0.9215333"
"1.9","378.9457","0.9466333"
"1.95","393.9446","0.9718333"
"2","408.299","0.9964333"
"2.05","422.0351","1.021667"
"2.1","435.7457","1.046933"
"2.15","448.7896","1.0714"
"2.2","460.2885","1.096567"
"2.25","470.9466","1.1219"
"2.3","480.4611","1.1466"
"2.35","488.2646","1.1714"
"2.4","495.1604","1.196567"
"2.45","501.6788","1.221833"
"2.5","507.3039","1.246533"
"2.55","511.9713","1.271633"
"2.6","516.1746","1.297033"
"2.65","519.5133","1.321567"
"2.7","521.7449","1.346533"
"2.75","523.738","1.3719"
"2.8","525.5715","1.396633"
"2.85","526.7477","1.4215"
"2.9","527.8452","1.446733"
"2.95","528.8728","1.471833"
"3","529.205","1.4965"
"3.05","528.8863","1.521667"
"3.1","528.0701","1.546967"
"3.15","525.8647","1.571533"
"3.2","522.329","1.5965"
"3.25","518.0558","1.621867"
"3.3","513.3199","1.646633"
"3.35","508.2806","1.671433"
"3.4","503.7951","1.696733"
"3.45","499.9995","1.7218"
"3.5","496.0402","1.7466"
"3.55","492.3574","1.771667"
"3.6","489.3947","1.797"
"3.65","486.5702","1.821467"
"3.7","483.5161","1.8465"
"3.75","481.062","1.871867"
"3.8","478.8192","1.8966"
"3.85","476.3468","1.9215"
"3.9","474.0858","1.9467"
"3.95","471.9384","1.971867"
"4","469.6067","1.996533"
"4.05","467.2345","2.0216"
"4.1","465.3867","2.046967"
"4.15","463.6161","2.071467"
"4.2","461.39","2.0965"
"4.25","459.5216","2.121933"
"4.3","457.7963","2.1466"
"4.35","455.6195","2.1715"
"4.4","453.62","2.196733"
"4.45","451.8859","2.221833"
"4.5","449.8061","2.2465"
"4.55","447.7747","2.271633"
"4.6","446.2814","2.297033"
"4.65","444.6316","2.321467"
"4.7","442.3714","2.346533"
"4.75","440.2304","2.371833"
"4.8","438.1641","2.396567"
"4.85","435.8101","2.4215"
"4.9","433.4712","2.446633"
"4.95","431.0409","2.471833"
"5","428.6448","2.496533"
"5.05","426.174","2.5217"
"5.1","424.1483","2.547"
"5.15","421.8674","2.571467"
"5.2","419.0938","2.5966"
"5.25","416.7437","2.6219"
"5.3","414.59","2.646633"
"5.35","412.035","2.6715"
"5.4","409.5793","2.696733"
"5.45","407.3143","2.721867"
"5.5","404.9977","2.746567"
"5.55","402.7613","2.7717"
"5.6","400.8929","2.796967"
"5.65","398.7527","2.8215"
"5.7","396.0951","2.846533"
"5.75","393.5901","2.871767"
"5.8","391.4293","2.896567"
"5.85","389.08","2.9215"
"5.9","386.6339","2.946733"
"5.95","384.0796","2.9718"
"6","380.9913","2.9964"
"6.05","377.6773","3.021667"
"6.1","374.7098","3.047"
"6.15","370.8831","3.071433"
"6.2","366.5741","3.096567"
"6.25","362.25","3.121833"
"6.3","357.1646","3.1466"
"6.35","351.3519","3.171533"
"6.4","346.7306","3.1968"
"6.45","342.6226","3.2218"
"6.5","337.6476","3.2466"
"6.55","332.7195","3.271633"
"6.6","328.873","3.297067"
"6.65","324.7897","3.321533"
"6.7","318.5765","3.346533"
"6.75","312.1917","3.3719"
"6.8","306.3186","3.396667"
"6.85","299.6659","3.4215"
"6.9","294.2197","3.4467"
"6.95","289.3686","3.471833"
"7","285.4276","3.496467"
"7.05","282.3416","3.521567"
"7.1","279.7206","3.546833"
"7.15","274.3387","3.571433"
"7.2","263.7839","3.596567"
"7.25","255.0681","3.6218"
"7.3","246.3174","3.646667"
"7.35","239.0202","3.671467"
"7.4","234.1898","3.696767"
"7.45","231.1627","3.721767"
"7.5","228.4733","3.746533"
"7.55","225.9898","3.771733"
"7.6","224.5561","3.797033"
"7.65","223.2552","3.821533"
"7.7","221.2087","3.846567"
"7.75","219.938","3.871833"
"7.8","218.8611","3.896633"
"7.85","217.2756","3.921433"
"7.9","214.1921","3.946733"
"7.95","203.8701","3.971767"
"8","196.9274","3.9964"
"8.05","190.4202","4.021667"
"8.1","185.5493","4.046933"
"8.15","182.8806","4.0714"
"8.2","180.7888","4.096533"
"8.25","178.8656","4.1218"
"8.3","177.2277","4.146567"
"8.35","176.3153","4.171433"
"8.4","175.5476","4.1967"
"8.45","172.6103","4.221767"
"8.5","168.2361","4.246533"
"8.55","163.3016","4.271733"
"8.6","157.4103","4.296967"
"8.65","152.0888","4.321533"
"8.7","148.6778","4.346567"
"8.75","146.0918","4.371767"
"8.8","144.2146","4.396667"
"8.85","142.622","4.4215"
"8.9","139.8603","4.4468"
"8.95","136.6655","4.4718"
"9","133.4111","4.496467"
"9.05","131.8121","4.521633"
"9.1","130.8139","4.546967"
"9.15","129.4096","4.571467"
"9.2","128.2994","4.5965"
"9.25","126.4707","4.6218"
"9.3","117.7009","4.646633"
"9.35","107.5753","4.671467"
"9.4","103.5126","4.696733"
"9.45","101.2055","4.721734"
"9.5","98.9151","4.7465"
"9.55","97.17862","4.7717"
"9.6","95.41353","4.796967"
"9.65","92.70509","4.8215"
"9.7","89.18524","4.846567"
"9.75","85.4524","4.871833"
"9.8","83.05391","4.896567"
"9.85","81.0647","4.921467"
"9.9","79.94652","4.946767"
"9.95","79.1796","4.971833"
"10","78.22037","4.996433"
"10.05","77.03622","5.0217"
"10.1","76.36308","5.047"
"10.15","75.54134","5.071533"
"10.2","74.22606","5.096533"
"10.25","72.87502","5.121867"
"10.3","71.50809","5.146533"
"10.35","68.41818","5.171534"
"10.4","64.50574","5.196667"
"10.45","61.16549","5.221767"
"10.5","56.66018","5.2465"
"10.55","53.7308","5.2717"
"10.6","21.85742","5.297"
"10.65","20.06531","5.3215"
"10.7","20.12332","5.346533"
"10.75","20.13842","5.3718"
"10.8","20.40386","5.3966"
"10.85","20.55089","5.421433"
"10.9","20.68917","5.446733"
"10.95","20.83937","5.471833"
"11","20.81156","5.496467"
"11.05","19.44304","5.521733"
"11.1","18.42419","5.546933"
"11.15","18.37492","5.571467"
"11.2","18.35028","5.5965"
"11.25","18.34154","5.621867"
"11.3","18.36697","5.646634"
"11.35","18.41466","5.671467"
"11.4","18.42896","5.696733"
"11.45","18.43055","5.7219"
"11.5","18.42658","5.746567"
"11.55","18.42896","5.7716"
"11.6","18.42817","5.7969"
"11.65","18.39081","5.821467"
"11.7","18.37572","5.846567"
"11.75","18.37015","5.871833"
"11.8","18.40035","5.896567"
"11.85","18.41068","5.9214"
"11.9","18.44247","5.946733"
"11.95","18.42817","5.9718"
"12","18.40433","5.9964"
"12.05","18.42022","6.021667"
"12.1","18.41784","6.046967"
"12.15","18.38366","6.071434"
"12.2","18.36459","6.096567"
"12.25","18.3932","6.121833"
"12.3","18.3924","6.146634"
"12.35","18.43929","6.171467"
"12.4","18.44883","6.196733"
"12.45","18.44168","6.2218"
"12.5","18.4377","6.246567"
"12.55","18.42658","6.271634"
"12.6","18.41068","6.297033"
"12.65","18.40035","6.321467"
"12.7","18.3924","6.3465"
"12.75","18.38207","6.371933"
"12.8","18.38366","6.396567"
"12.85","18.39956","6.4214"
"12.9","18.41545","6.4467"
"12.95","18.42658","6.4718"
"13","18.43055","6.496467"
"13.05","18.42419","6.5149"