File: degradation_testing/tensile_testing/PLA/PLA_Water/PLA-W-5.csv
"1 _ 1",,
"Time","Force","Stroke"
"sec","N","mm"
"0","0.4084905","0.0001"
"0.04","0.603199","0.01586667"
"0.08","6.989638","0.03653333"
"0.12","19.26025","0.05646667"
"0.16","31.09773","0.07626667"
"0.2","42.60461","0.0966"
"0.24","52.4505","0.1168667"
"0.28","53.85081","0.1364"
"0.32","53.88419","0.1565333"
"0.36","53.92869","0.1767333"
"0.4","53.95333","0.1967667"
"0.44","53.93982","0.2165"
"0.48","53.94459","0.2364667"
"0.52","53.94538","0.2567333"
"0.56","53.90882","0.2769333"
"0.6","53.89531","0.2967"
"0.64","53.93426","0.3163"
"0.68","53.97002","0.3366667"
"0.72","54.02009","0.3568333"
"0.76","54.09877","0.3767333"
"0.8","54.10512","0.3965"
"0.84","54.09877","0.4166"
"0.88","54.0781","0.4367667"
"0.92","54.11466","0.4566333"
"0.96","54.13214","0.4765334"
"1","55.73114","0.4965"
"1.04","64.62415","0.5167333"
"1.08","74.44382","0.5368"
"1.12","84.52574","0.5564333"
"1.16","94.4074","0.5763667"
"1.2","104.0745","0.5966333"
"1.24","113.2735","0.6169"
"1.28","122.2086","0.6364334"
"1.32","131.0142","0.6564667"
"1.36","139.8063","0.6766334"
"1.4","148.7692","0.6968"
"1.44","157.8736","0.7164333"
"1.48","166.858","0.7363667"
"1.52","175.9767","0.7566"
"1.56","185.3752","0.7768334"
"1.6","194.8237","0.7967333"
"1.64","204.095","0.8163"
"1.68","213.3679","0.8366333"
"1.72","223.0183","0.8568667"
"1.76","232.7768","0.8767334"
"1.8","242.1101","0.8965334"
"1.84","251.1931","0.9166334"
"1.88","260.4341","0.9368333"
"1.92","269.7213","0.9566666"
"1.96","278.844","0.9764333"
"2","287.7331","0.9965"
"2.04","296.8375","1.0167"
"2.08","305.9316","1.036833"
"2.12","314.8746","1.056533"
"2.16","323.4267","1.076333"
"2.2","331.9605","1.096667"
"2.24","340.3815","1.116967"
"2.28","348.1046","1.1365"
"2.32","355.2421","1.156433"
"2.36","362.4098","1.176667"
"2.4","369.7046","1.196633"
"2.44","376.8166","1.2165"
"2.48","383.8229","1.236467"
"2.52","390.7156","1.256667"
"2.56","397.7871","1.276767"
"2.6","404.7116","1.296733"
"2.64","411.3046","1.316267"
"2.68","417.7006","1.336633"
"2.72","424.4002","1.356833"
"2.76","431.0362","1.376733"
"2.8","437.332","1.396433"
"2.84","443.3227","1.4166"
"2.88","449.3976","1.436933"
"2.92","455.3525","1.456667"
"2.96","460.8607","1.4765"
"3","465.9645","1.4965"
"3.04","470.8552","1.516767"
"3.08","475.3725","1.536867"
"3.12","479.4923","1.556567"
"3.16","483.2323","1.576367"
"3.2","486.9366","1.596633"
"3.24","490.4278","1.616867"
"3.28","493.4478","1.636433"
"3.32","495.9798","1.656433"
"3.36","498.5333","1.676767"
"3.4","501.1169","1.696767"
"3.44","503.3127","1.716467"
"3.48","505.1454","1.736367"
"3.52","506.9129","1.756733"
"3.56","508.9148","1.776833"
"3.6","510.6703","1.7967"
"3.64","512.2129","1.816233"
"3.68","513.6998","1.836567"
"3.72","515.4411","1.856767"
"3.76","517.0441","1.876733"
"3.8","518.3093","1.896467"
"3.84","519.0103","1.916533"
"3.88","519.5181","1.936933"
"3.92","519.2932","1.956633"
"3.96","517.7792","1.9766"
"4","515.2488","1.996467"
"4.04","512.1072","2.016733"
"4.08","508.3315","2.036833"
"4.12","503.672","2.056533"
"4.16","498.1279","2.0764"
"4.2","492.3749","2.0967"
"4.24","486.505","2.117"
"4.28","480.2259","2.136467"
"4.32","473.5104","2.156467"
"4.36","467.298","2.176667"
"4.4","461.7214","2.196733"
"4.44","456.3936","2.216467"
"4.48","451.2747","2.2364"
"4.52","446.6335","2.256633"
"4.56","442.4914","2.276767"
"4.6","438.5209","2.2967"
"4.64","434.5457","2.316367"
"4.68","430.762","2.3366"
"4.72","427.3605","2.356767"
"4.76","424.242","2.376667"
"4.8","421.1966","2.396467"
"4.84","418.3563","2.4166"
"4.88","415.9633","2.4369"
"4.92","413.9415","2.4566"
"4.96","411.8466","2.4765"
"5","409.9329","2.4964"
"5.04","408.3641","2.516833"
"5.08","407.0727","2.536867"
"5.12","405.4316","2.5565"
"5.16","403.5815","2.5764"
"5.2","402.1057","2.5967"
"5.24","401.001","2.616933"
"5.28","399.7922","2.636467"
"5.32","398.2107","2.6564"
"5.36","396.7682","2.676667"
"5.4","395.7105","2.6968"
"5.44","394.7091","2.716533"
"5.48","393.5162","2.7365"
"5.52","392.2606","2.756733"
"5.56","391.198","2.7768"
"5.6","389.9694","2.796733"
"5.64","388.5364","2.816333"
"5.68","387.1465","2.836633"
"5.72","386.0807","2.8568"
"5.76","385.0977","2.876733"
"5.8","383.78","2.896433"
"5.84","382.2239","2.916567"
"5.88","381.0557","2.936967"
"5.92","379.9733","2.9567"
"5.96","378.5332","2.9765"
"6","376.9096","2.9965"
"6.04","375.5983","3.016767"
"6.08","374.3275","3.036833"
"6.12","372.8342","3.0565"
"6.16","371.0111","3.076267"
"6.2","369.4272","3.096567"
"6.24","367.8497","3.1169"
"6.28","365.7134","3.1365"
"6.32","363.0988","3.1565"
"6.36","360.0963","3.176733"
"6.4","356.3412","3.196767"
"6.44","351.1874","3.216467"
"6.48","345.2841","3.2365"
"6.52","337.7755","3.256667"
"6.56","330.3607","3.2768"
"6.6","322.8005","3.2967"
"6.64","310.9137","3.316333"
"6.68","296.4966","3.336633"
"6.72","284.7234","3.356867"
"6.76","276.2763","3.3767"
"6.8","269.5648","3.396533"
"6.84","264.31","3.416533"
"6.88","260.3785","3.4369"
"6.92","257.1281","3.456633"
"6.96","253.733","3.4765"
"7","250.3077","3.496467"
"7.04","246.6162","3.516733"
"7.08","241.6221","3.5368"
"7.12","233.5835","3.556533"
"7.16","221.959","3.5764"
"7.2","212.458","3.596667"
"7.24","205.8728","3.616933"
"7.28","200.5299","3.6364"
"7.32","196.0158","3.656433"
"7.36","191.8538","3.6767"
"7.4","188.0956","3.696767"
"7.44","183.8017","3.716467"
"7.48","178.6765","3.736433"
"7.52","168.1805","3.756633"
"7.56","151.101","3.776867"
"7.6","140.0813","3.796733"
"7.64","132.4034","3.8164"
"7.68","125.8334","3.8366"
"7.72","119.919","3.856833"
"7.76","114.0285","3.876667"
"7.8","102.9269","3.896533"
"7.84","79.62783","3.9166"
"7.88","69.37424","3.936867"
"7.92","63.61564","3.956633"
"7.96","56.49487","3.976533"
"8","24.85116","3.9965"
"8.04","17.83609","4.0168"
"8.08","17.75265","4.036833"
"8.12","17.73596","4.056467"
"8.16","17.78046","4.076433"
"8.2","17.78603","4.096567"
"8.24","17.78921","4.117"
"8.28","17.74629","4.136434"
"8.32","17.77172","4.1564"
"8.36","17.77967","4.176667"
"8.4","17.73119","4.1968"
"8.44","17.69066","4.2165"
"8.48","17.70894","4.236467"
"8.52","17.72642","4.256567"
"8.56","17.70417","4.276767"
"8.6","17.70576","4.2967"
"8.64","17.73596","4.316333"
"8.68","17.77172","4.336633"
"8.72","17.76377","4.356867"
"8.76","17.7598","4.376667"
"8.8","17.77967","4.3965"
"8.84","17.78205","4.416667"
"8.88","17.74391","4.436833"
"8.92","17.72881","4.4568"
"8.96","17.74391","4.476533"
"9","17.75106","4.496467"
"9.04","17.71768","4.516733"
"9.08","17.70814","4.536833"
"9.12","17.73278","4.5565"
"9.16","17.74708","4.5764"
"9.2","17.73278","4.596633"
"9.24","17.74232","4.616867"
"9.28","17.76218","4.636467"
"9.32","17.78841","4.656466"
"9.36","17.76934","4.676733"
"9.4","17.75344","4.696733"
"9.44","17.77093","4.716467"
"9.48","17.74152","4.7364"
"9.52","17.73119","4.7567"
"9.56","17.73039","4.7768"
"9.6","17.72006","4.7967"
"9.64","17.71291","4.8163"
"9.67","17.72006","4.826533"