File: degradation_testing/tensile_testing/PLA/PLA_Water/PLA-W-3.csv
"1 _ 1",,
"Time","Force","Stroke"
"sec","N","mm"
"0","0.4553795","6.666667E-05"
"0.03","0.4839897","0.01076667"
"0.06","2.823671","0.0261"
"0.09","11.66423","0.0412"
"0.12","22.39068","0.0563"
"0.15","32.91925","0.0716"
"0.18","43.2992","0.08673333"
"0.21","53.38907","0.1016667"
"0.24","62.05241","0.1165667"
"0.27","64.50097","0.1314333"
"0.3","64.54547","0.1464667"
"0.33","64.55819","0.1617"
"0.36","64.56613","0.1768333"
"0.39","64.58759","0.1917667"
"0.42","64.6011","0.2064333"
"0.45","64.62415","0.2213333"
"0.48","64.6321","0.2366"
"0.51","64.60985","0.2517333"
"0.54","64.58759","0.2669667"
"0.57","64.59236","0.2817"
"0.6","64.6011","0.2964667"
"0.63","64.60985","0.3114333"
"0.66","64.64163","0.3266667"
"0.69","64.65912","0.3417333"
"0.72","64.71555","0.3567"
"0.75","64.74654","0.3714333"
"0.78","64.76164","0.3864333"
"0.81","64.77991","0.4016667"
"0.84","64.80376","0.4167333"
"0.87","64.79581","0.4319"
"0.9","64.79263","0.4467333"
"0.93","64.79025","0.4615667"
"0.96","65.00244","0.4763667"
"0.99","67.40968","0.4916667"
"1.02","72.95211","0.5067667"
"1.05","79.75896","0.5217333"
"1.08","89.79718","0.5363667"
"1.11","100.3877","0.5513"
"1.14","110.2678","0.5664333"
"1.17","120.8528","0.5816666"
"1.2","131.4672","0.5968"
"1.23","142.165","0.6116667"
"1.26","152.6125","0.6264667"
"1.29","162.7692","0.6413667"
"1.32","172.9242","0.6566333"
"1.35","183.2843","0.6717333"
"1.38","193.6658","0.6868"
"1.41","203.8129","0.7015333"
"1.44","213.7637","0.7165334"
"1.47","223.7296","0.7313"
"1.5","233.7321","0.7465"
"1.53","243.8426","0.7617667"
"1.56","253.9349","0.7767"
"1.59","263.9254","0.7914667"
"1.62","273.6203","0.8064333"
"1.65","283.1777","0.8217"
"1.68","292.6819","0.8369667"
"1.71","302.1169","0.8517667"
"1.74","311.4128","0.8665333"
"1.77","320.5355","0.8815333"
"1.8","329.4667","0.8964667"
"1.83","338.4153","0.9116334"
"1.86","347.391","0.9268"
"1.89","356.2919","0.9417334"
"1.92","364.9886","0.9565"
"1.95","373.3897","0.9712334"
"1.98","381.6589","0.9865"
"2.01","389.7977","1.0017"
"2.04","397.6671","1.016933"
"2.07","405.0771","1.031633"
"2.1","412.0159","1.046567"
"2.13","418.5963","1.061433"
"2.16","425.0709","1.076667"
"2.19","431.5448","1.0918"
"2.22","437.9431","1.106567"
"2.25","444.0586","1.121367"
"2.28","449.9396","1.136367"
"2.31","455.8023","1.151533"
"2.34","461.6833","1.166633"
"2.37","467.6565","1.1818"
"2.4","473.4612","1.196533"
"2.43","479.1307","1.211567"
"2.46","484.6827","1.226367"
"2.49","490.3293","1.241633"
"2.52","495.9631","1.2568"
"2.55","501.5739","1.271767"
"2.58","507.0567","1.2864"
"2.61","512.1771","1.301333"
"2.64","517.2729","1.316467"
"2.67","522.2893","1.3318"
"2.7","527.2874","1.346667"
"2.73","532.0898","1.361667"
"2.76","536.5356","1.3764"
"2.79","540.6252","1.391467"
"2.82","544.5139","1.4066"
"2.85","548.2888","1.421767"
"2.88","551.7777","1.436967"
"2.91","554.9089","1.4516"
"2.94","557.4552","1.4664"
"2.97","559.6384","1.481433"
"3","561.6784","1.4965"
"3.03","563.5524","1.511833"
"3.06","564.9304","1.5267"
"3.09","565.7355","1.541433"
"3.12","565.8372","1.556433"
"3.15","565.8118","1.571767"
"3.18","565.6433","1.5869"
"3.21","565.2563","1.601767"
"3.24","564.0403","1.616533"
"3.27","561.645","1.631433"
"3.3","558.0687","1.646567"
"3.33","553.6786","1.661633"
"3.36","548.7371","1.6768"
"3.39","543.259","1.691733"
"3.42","537.3605","1.706467"
"3.45","531.0615","1.721367"
"3.48","524.8356","1.7364"
"3.51","518.5914","1.7517"
"3.54","512.3997","1.767067"
"3.57","506.1642","1.781567"
"3.6","499.5807","1.796533"
"3.63","492.8064","1.811433"
"3.66","486.2936","1.8267"
"3.69","479.943","1.841767"
"3.72","473.7107","1.8567"
"3.75","467.5341","1.871367"
"3.78","461.5323","1.886467"
"3.81","455.9716","1.901533"
"3.84","451.0236","1.916667"
"3.87","446.678","1.931833"
"3.9","442.9499","1.9467"
"3.93","439.6089","1.961567"
"3.96","436.5269","1.976367"
"3.99","433.8972","1.991633"
"4.02","431.7371","2.0068"
"4.05","429.6986","2.021767"
"4.08","427.7595","2.036467"
"4.11","425.5994","2.051333"
"4.14","423.2812","2.0665"
"4.17","421.0154","2.0818"
"4.2","418.7775","2.096733"
"4.23","416.3098","2.111667"
"4.26","413.8128","2.126467"
"4.29","410.7499","2.141467"
"4.32","407.4415","2.156667"
"4.35","404.1998","2.171733"
"4.38","400.9207","2.1869"
"4.41","397.4803","2.201533"
"4.44","393.2977","2.2165"
"4.47","388.732","2.231333"
"4.5","383.8587","2.246633"
"4.53","378.774","2.261867"
"4.56","373.6997","2.276667"
"4.59","368.4402","2.291467"
"4.62","362.4995","2.3064"
"4.65","354.8614","2.321767"
"4.68","345.6577","2.3369"
"4.71","336.8656","2.3518"
"4.74","329.3753","2.366467"
"4.77","323.2749","2.381367"
"4.8","317.9645","2.396433"
"4.83","312.7678","2.411667"
"4.86","306.7708","2.426767"
"4.89","299.1867","2.4417"
"4.92","291.5001","2.456533"
"4.95","283.9383","2.471267"
"4.98","276.0553","2.4865"
"5.01","267.9284","2.5018"
"5.04","257.8116","2.516933"
"5.07","243.9896","2.531667"
"5.1","229.1044","2.546567"
"5.13","214.6331","2.561433"
"5.16","202.4539","2.5767"
"5.19","190.1301","2.591733"
"5.22","181.1059","2.6067"
"5.25","175.4276","2.621433"
"5.28","171.6359","2.6364"
"5.31","168.55","2.651567"
"5.34","166.2517","2.666667"
"5.37","164.5954","2.681933"
"5.4","162.8518","2.696733"
"5.43","160.1831","2.7116"
"5.46","156.676","2.7264"
"5.49","153.3055","2.741667"
"5.52","149.4757","2.756867"
"5.55","145.0769","2.771833"
"5.58","140.8172","2.786433"
"5.61","135.6475","2.801367"
"5.64","129.2777","2.8165"
"5.67","121.8406","2.8317"
"5.7","114.8963","2.8467"
"5.73","110.1518","2.861667"
"5.76","106.2711","2.876467"
"5.79","102.8132","2.891467"
"5.82","100.4656","2.906633"
"5.85","98.03056","2.921767"
"5.88","96.16693","2.9369"
"5.91","94.3025","2.9516"
"5.94","92.55489","2.9664"
"5.97","90.97894","2.9814"
"6","88.28401","2.9966"
"6.03","84.8039","3.011833"
"6.06","82.72092","3.026633"
"6.09","81.62737","3.041433"
"6.12","80.86443","3.056367"
"6.15","79.96877","3.071733"
"6.18","78.81562","3.0868"
"6.21","76.70641","3.1017"
"6.24","74.70052","3.1165"
"6.27","72.93939","3.131433"
"6.3","71.20848","3.1465"
"6.33","69.04681","3.161667"
"6.36","66.47348","3.176833"
"6.39","64.65674","3.191867"
"6.42","50.0234","3.206433"
"6.45","29.0966","3.221267"
"6.48","28.52758","3.2366"
"6.51","28.42506","3.251733"
"6.54","28.42903","3.266933"
"6.57","28.48387","3.281633"
"6.6","28.49182","3.296533"
"6.63","28.51248","3.3115"
"6.66","28.50533","3.326733"
"6.69","28.4942","3.3417"
"6.72","28.49499","3.3567"
"6.75","28.49658","3.3714"
"6.78","28.48546","3.386367"
"6.81","28.49022","3.401633"
"6.84","28.45128","3.416633"
"6.87","28.39565","3.431867"
"6.9","28.41632","3.4467"
"6.93","28.45844","3.461533"
"6.96","28.43698","3.4764"
"6.99","28.4187","3.491633"
"7.02","28.39645","3.506833"
"7.05","28.41473","3.521833"
"7.08","28.44493","3.536433"
"7.11","28.44969","3.551233"
"7.14","28.45685","3.566467"
"7.17","28.45605","3.5817"
"7.2","28.45923","3.596767"
"7.23","28.48705","3.611633"
"7.26","28.49897","3.626467"
"7.29","28.46956","3.641367"
"7.32","28.44572","3.6566"
"7.35","28.41473","3.671767"
"7.38","28.41632","3.686867"
"7.41","28.40916","3.7016"
"7.44","28.40122","3.716467"
"7.47","28.39883","3.731367"
"7.49","28.40122","3.7362"