File: degradation_testing/tensile_testing/PLA/PLA_Water/PLA-W-2.csv
"1 _ 1",,
"Time","Force","Stroke"
"sec","N","mm"
"0","0.3623962","0.0001"
"0.04","0.6651878","0.01596667"
"0.08","9.253025","0.0365"
"0.12","21.32416","0.05643333"
"0.16","25.77623","0.0764"
"0.2","33.6647","0.09676667"
"0.24","34.87984","0.1168"
"0.28","34.91004","0.1364667"
"0.32","35.22714","0.1565"
"0.36","37.74802","0.1767333"
"0.4","40.09088","0.1968"
"0.44","42.27797","0.2163667"
"0.48","46.52739","0.2364333"
"0.52","50.93972","0.2567"
"0.56","51.33708","0.2769333"
"0.6","51.41417","0.2964667"
"0.64","51.43483","0.3163333"
"0.68","51.70266","0.3366667"
"0.72","51.81392","0.3569"
"0.76","51.45311","0.3766667"
"0.8","51.54133","0.3963"
"0.84","51.46821","0.4167333"
"0.88","51.8028","0.4368"
"0.92","52.29076","0.4567"
"0.96","57.38894","0.4765"
"1","63.78492","0.4966"
"1.04","76.9035","0.5167667"
"1.08","91.22054","0.5367333"
"1.12","103.7939","0.5565667"
"1.16","114.998","0.5763333"
"1.2","126.4191","0.5968"
"1.24","139.3255","0.6167333"
"1.28","153.4955","0.6364"
"1.32","168.2409","0.6563333"
"1.36","182.4975","0.6767667"
"1.4","196.5817","0.6968333"
"1.44","210.7819","0.7164"
"1.48","224.5919","0.7364"
"1.52","238.3168","0.7566667"
"1.56","252.161","0.7769"
"1.6","265.7135","0.7965"
"1.64","278.7765","0.8163334"
"1.68","291.9014","0.8365667"
"1.72","305.2179","0.8568"
"1.76","318.2411","0.8766333"
"1.8","330.8169","0.8963667"
"1.84","342.7466","0.9167"
"1.88","354.0675","0.9367667"
"1.92","364.84","0.9566"
"1.96","375.224","0.9765"
"2","385.464","0.9966"
"2.04","395.1748","1.016733"
"2.08","404.8658","1.036767"
"2.12","414.3651","1.056633"
"2.16","423.4123","1.076333"
"2.2","432.3141","1.0968"
"2.24","441.3581","1.116733"
"2.28","449.9769","1.1365"
"2.32","457.9322","1.1564"
"2.36","465.7944","1.1768"
"2.4","473.9873","1.196667"
"2.44","481.8289","1.216267"
"2.48","489.4352","1.2364"
"2.52","497.1703","1.256633"
"2.56","504.965","1.276833"
"2.6","512.3504","1.296467"
"2.64","519.46","1.316433"
"2.68","526.46","1.3366"
"2.72","533.1779","1.356933"
"2.76","540.0332","1.376567"
"2.8","546.1836","1.396333"
"2.84","551.5003","1.416667"
"2.88","556.0819","1.436733"
"2.92","559.9014","1.456633"
"2.96","562.8975","1.4764"
"3","565.2476","1.496467"
"3.04","567.1771","1.516767"
"3.08","568.1944","1.536767"
"3.12","568.0052","1.556633"
"3.16","566.4929","1.5764"
"3.2","563.4642","1.596733"
"3.24","558.5146","1.616767"
"3.28","551.6235","1.636467"
"3.32","543.4775","1.656533"
"3.36","535.6367","1.676833"
"3.4","528.4206","1.696733"
"3.44","521.458","1.716367"
"3.48","514.9659","1.736533"
"3.52","509.1763","1.756633"
"3.56","503.7848","1.776933"
"3.6","498.604","1.796533"
"3.64","493.4875","1.816333"
"3.68","488.7748","1.8365"
"3.72","484.2981","1.856933"
"3.76","480.0471","1.8765"
"3.8","475.3343","1.8964"
"3.84","470.8179","1.9167"
"3.88","466.4954","1.936767"
"3.92","462.2165","1.956633"
"3.96","457.4569","1.976533"
"4","452.6774","1.996633"
"4.04","448.0561","2.016767"
"4.08","443.3966","2.036733"
"4.12","438.7299","2.056567"
"4.16","433.9075","2.076367"
"4.2","429.3918","2.096767"
"4.24","425.0956","2.1167"
"4.28","420.5235","2.1365"
"4.32","415.7678","2.156467"
"4.36","411.0742","2.1768"
"4.4","406.7024","2.1968"
"4.44","402.1192","2.2164"
"4.48","396.7555","2.236467"
"4.52","390.6624","2.2566"
"4.56","384.779","2.276833"
"4.6","379.2198","2.2965"
"4.64","373.8824","2.316367"
"4.68","369.2993","2.3366"
"4.72","365.2437","2.3569"
"4.76","361.0317","2.376533"
"4.8","355.9868","2.396367"
"4.84","350.9736","2.416733"
"4.88","345.8746","2.436667"
"4.92","340.4236","2.4566"
"4.96","334.87","2.476433"
"5","329.5358","2.496533"
"5.04","324.1587","2.516833"
"5.08","318.145","2.536767"
"5.12","310.8104","2.5565"
"5.16","303.2486","2.5764"
"5.2","296.0833","2.596767"
"5.24","289.549","2.6168"
"5.28","282.7326","2.6365"
"5.32","275.2375","2.656433"
"5.36","268.5682","2.676767"
"5.4","262.5831","2.6968"
"5.44","256.5877","2.7164"
"5.48","249.1577","2.736467"
"5.52","241.0674","2.7567"
"5.56","232.4613","2.7769"
"5.6","224.6674","2.796533"
"5.64","216.4022","2.816333"
"5.68","206.8154","2.836667"
"5.72","197.2039","2.8569"
"5.76","190.0411","2.8766"
"5.8","183.8573","2.896367"
"5.84","176.4377","2.916667"
"5.88","165.7661","2.936633"
"5.92","156.3597","2.9567"
"5.96","149.5735","2.976467"
"6","142.3256","2.996567"
"6.04","136.8332","3.016767"
"6.08","130.9713","3.036767"
"6.12","122.3127","3.0565"
"6.16","116.0487","3.076467"
"6.2","112.8689","3.096733"
"6.24","109.5716","3.116733"
"6.28","105.8229","3.136467"
"6.32","103.2678","3.156533"
"6.36","101.3994","3.176767"
"6.4","99.79407","3.196733"
"6.44","97.85732","3.216367"
"6.48","95.36028","3.236467"
"6.52","91.91592","3.256633"
"6.56","88.99927","3.276933"
"6.6","87.19603","3.2965"
"6.64","85.16232","3.3163"
"6.68","82.97762","3.336667"
"6.72","80.18891","3.356933"
"6.76","76.71594","3.376633"
"6.8","74.16487","3.396367"
"6.84","72.45382","3.4167"
"6.88","71.42305","3.436733"
"6.92","70.19202","3.456667"
"6.96","68.31567","3.4765"
"7","67.00913","3.496567"
"7.04","65.25278","3.516767"
"7.08","64.09724","3.536733"
"7.12","63.5759","3.5564"
"7.16","63.05377","3.576433"
"7.2","62.24712","3.596767"
"7.24","61.68127","3.616833"
"7.28","60.52653","3.636433"
"7.32","59.14847","3.656467"
"7.36","58.03823","3.676767"
"7.4","57.46921","3.696867"
"7.44","57.41755","3.7164"
"7.48","57.31742","3.736433"
"7.52","57.23953","3.756567"
"7.56","56.9725","3.776867"
"7.6","56.17698","3.796567"
"7.64","55.0731","3.816333"
"7.68","54.57322","3.8366"
"7.72","54.45719","3.856867"
"7.76","54.3642","3.876633"
"7.8","54.1989","3.896367"
"7.84","53.83094","3.916767"
"7.88","52.85422","3.936667"
"7.92","51.68676","3.9566"
"7.96","51.26556","3.976467"
"8","50.94687","3.996633"
"8.04","50.45652","4.016833"
"8.08","50.05677","4.0368"
"8.12","42.44963","4.056567"
"8.16","14.11756","4.076467"
"8.2","13.7798","4.096734"
"8.24","13.76231","4.1168"
"8.28","13.77583","4.136434"
"8.32","13.82033","4.156466"
"8.36","13.84576","4.176733"
"8.4","13.81159","4.1967"
"8.44","13.79808","4.216367"
"8.48","13.80046","4.2365"
"8.52","13.79569","4.256633"
"8.56","13.72973","4.2769"
"8.6","13.69953","4.296566"
"8.64","13.72099","4.316367"
"8.68","13.73847","4.336667"
"8.72","13.70192","4.356867"
"8.76","13.72019","4.3765"
"8.8","13.75755","4.3963"
"8.84","13.78059","4.416733"
"8.88","13.76549","4.436733"
"8.92","13.80046","4.456733"
"8.96","13.82907","4.476467"
"9","13.8092","4.496567"
"9.04","13.80523","4.5168"
"9.08","13.76867","4.5368"
"9.12","13.74881","4.556567"
"9.16","13.74642","4.5765"
"9.2","13.70907","4.596734"
"9.24","13.72496","4.616767"
"9.28","13.72099","4.636467"
"9.32","13.72655","4.656533"
"9.36","13.74483","4.6768"
"9.4","13.76231","4.696767"
"9.44","13.80761","4.716367"
"9.48","13.80682","4.7364"
"9.52","13.78775","4.7566"
"9.56","13.79331","4.776867"
"9.6","13.79649","4.796467"
"9.64","13.75755","4.816333"
"9.67","13.73529","4.8256"