File: degradation_testing/tensile_testing/PLA/PLA_Water/PLA-W-1.csv
"1 _ 1",,
"Time","Force","Stroke"
"sec","N","mm"
"0","0.8718173","0.0001"
"0.05","2.597968","0.02126667"
"0.1","20.24333","0.04656667"
"0.15","40.2991","0.0719"
"0.2","56.66892","0.0965"
"0.25","58.35931","0.1214667"
"0.3","58.36407","0.1468333"
"0.35","58.36407","0.1717"
"0.4","58.35612","0.1964667"
"0.45","58.38394","0.2217"
"0.5","58.34739","0.2466667"
"0.55","58.34818","0.2714667"
"0.6","58.36964","0.2967667"
"0.65","58.42527","0.322"
"0.7","58.52222","0.3465"
"0.75","58.5103","0.3714667"
"0.8","58.5103","0.3969333"
"0.85","58.5262","0.4216667"
"0.9","58.66687","0.4464"
"0.95","61.40947","0.4718333"
"1","75.58823","0.4967333"
"1.05","89.70579","0.5215333"
"1.1","105.2229","0.5467333"
"1.15","124.4974","0.5719"
"1.2","143.3587","0.5965334"
"1.25","161.8369","0.6214"
"1.3","180.3176","0.6467667"
"1.35","198.9953","0.6716"
"1.4","216.8989","0.6963333"
"1.45","234.5379","0.7218"
"1.5","252.4734","0.7467667"
"1.55","269.4607","0.7715"
"1.6","285.7415","0.7968"
"1.65","302.132","0.8219333"
"1.7","317.7071","0.8465334"
"1.75","332.0901","0.8713"
"1.8","345.6362","0.8967667"
"1.85","359.416","0.9216334"
"1.9","371.9385","0.9465"
"1.95","383.9127","0.9718"
"2","395.6183","0.9967"
"2.05","406.75","1.021567"
"2.1","417.5735","1.046767"
"2.15","428.408","1.071933"
"2.2","439.0717","1.096567"
"2.25","449.357","1.1214"
"2.3","459.8307","1.146867"
"2.35","470.4436","1.1716"
"2.4","480.2855","1.1964"
"2.45","489.9542","1.221767"
"2.5","499.8692","1.2466"
"2.55","509.3495","1.2715"
"2.6","518.7694","1.2967"
"2.65","528.2545","1.321867"
"2.7","537.6649","1.3466"
"2.75","546.5499","1.3714"
"2.8","554.5505","1.396833"
"2.85","561.6848","1.4216"
"2.9","567.4402","1.446433"
"2.95","572.1116","1.471867"
"3","575.8167","1.4967"
"3.05","577.5134","1.521467"
"3.1","577.457","1.546667"
"3.15","576.1242","1.571967"
"3.2","572.385","1.5966"
"3.25","564.7985","1.6214"
"3.3","555.3015","1.646867"
"3.35","545.4064","1.671633"
"3.4","535.2839","1.696433"
"3.45","526.3329","1.721867"
"3.5","518.7018","1.746633"
"3.55","511.3784","1.771467"
"3.6","504.5732","1.796733"
"3.65","498.4435","1.821967"
"3.7","492.3749","1.846533"
"3.75","486.4168","1.871367"
"3.8","480.9094","1.896833"
"3.85","475.7174","1.9216"
"3.9","470.0287","1.946467"
"3.95","464.8256","1.971833"
"4","460.0724","1.996733"
"4.05","455.1498","2.021567"
"4.1","450.3965","2.046667"
"4.15","446.1606","2.071933"
"4.2","442.3086","2.0965"
"4.25","438.3095","2.1214"
"4.3","434.924","2.146867"
"4.35","431.8555","2.171667"
"4.4","428.3945","2.196467"
"4.45","425.1758","2.221833"
"4.5","422.3871","2.246767"
"4.55","419.3767","2.271567"
"4.6","416.3567","2.2967"
"4.65","413.8009","2.321933"
"4.7","411.1465","2.3465"
"4.75","408.3101","2.371367"
"4.8","405.8242","2.396867"
"4.85","403.5568","2.421633"
"4.9","400.6577","2.446433"
"4.95","397.9778","2.4719"
"5","395.8654","2.496667"
"5.05","393.614","2.521467"
"5.1","391.4857","2.5467"
"5.15","389.8978","2.572"
"5.2","388.3012","2.596533"
"5.25","386.3486","2.621433"
"5.3","384.8123","2.646833"
"5.35","383.1633","2.6717"
"5.4","381.1653","2.6964"
"5.45","379.2198","2.7218"
"5.5","377.5072","2.7467"
"5.55","375.4791","2.771533"
"5.6","373.1664","2.7967"
"5.65","371.1176","2.821933"
"5.7","368.7771","2.846567"
"5.75","366.2467","2.871467"
"5.8","364.0191","2.896867"
"5.85","360.9586","2.921633"
"5.9","356.8125","2.9464"
"5.95","352.4335","2.9718"
"6","347.72","2.9967"
"6.05","341.2882","3.021533"
"6.1","334.7484","3.0467"
"6.15","330.0198","3.071933"
"6.2","326.182","3.096633"
"6.25","321.8754","3.1215"
"6.3","317.7905","3.146867"
"6.35","314.4296","3.1717"
"6.4","311.1251","3.196467"
"6.45","307.1443","3.221867"
"6.5","303.6777","3.246633"
"6.55","299.9941","3.2715"
"6.6","296.6189","3.296767"
"6.65","293.8032","3.321933"
"6.7","290.7594","3.3465"
"6.75","286.7675","3.3714"
"6.8","281.7822","3.396933"
"6.85","275.9194","3.421733"
"6.9","268.968","3.4465"
"6.95","262.6212","3.4718"
"7","257.4841","3.4967"
"7.05","251.5316","3.5215"
"7.1","243.8291","3.546633"
"7.15","231.5076","3.571933"
"7.2","221.8413","3.596533"
"7.25","215.0798","3.621433"
"7.3","210.1572","3.6469"
"7.35","205.8784","3.671667"
"7.4","200.7373","3.6964"
"7.45","196.3846","3.721833"
"7.5","192.3505","3.746733"
"7.55","188.206","3.7714"
"7.6","184.2244","3.7967"
"7.65","178.0876","3.821933"
"7.7","169.7453","3.846567"
"7.75","161.4078","3.8714"
"7.8","156.6704","3.896867"
"7.85","153.5018","3.9217"
"7.9","150.5478","3.9465"
"7.95","147.6002","3.971833"
"8","143.6281","3.9967"
"8.05","141.0302","4.021567"
"8.1","138.8788","4.046667"
"8.15","138.1699","4.072033"
"8.2","137.0708","4.096567"
"8.25","136.0075","4.121433"
"8.3","135.0156","4.1469"
"8.35","133.8299","4.171667"
"8.4","131.3647","4.1964"
"8.45","129.5368","4.221734"
"8.5","128.2438","4.246634"
"8.55","125.9963","4.271533"
"8.6","123.4945","4.296767"
"8.65","121.5577","4.321967"
"8.7","120.2154","4.346567"
"8.75","119.2125","4.371467"
"8.8","118.1579","4.396833"
"8.85","115.9191","4.4216"
"8.9","112.3428","4.446434"
"8.95","110.8472","4.471833"
"9","109.4413","4.496767"
"9.05","106.1749","4.5215"
"9.1","100.9019","4.546733"
"9.15","96.30362","4.571967"
"9.2","92.32998","4.596567"
"9.25","90.29309","4.621467"
"9.3","87.3224","4.646867"
"9.35","83.70718","4.671566"
"9.4","81.59637","4.6964"
"9.45","77.18324","4.721833"
"9.5","70.92794","4.746667"
"9.55","68.17738","4.771433"
"9.6","63.36212","4.796667"
"9.65","58.72726","4.821967"
"9.7","58.06446","4.8465"
"9.75","52.36864","4.871367"
"9.8","47.89035","4.8969"
"9.85","46.0577","4.921633"
"9.9","45.51093","4.946434"
"9.95","45.31224","4.971767"
"10","45.03409","4.996733"
"10.05","45.0023","5.021533"
"10.1","44.86084","5.046667"
"10.15","44.52546","5.071867"
"10.2","44.51196","5.096567"
"10.25","44.49606","5.121567"
"10.3","44.26877","5.146867"
"10.35","44.26479","5.171667"
"10.4","44.37844","5.196434"
"10.45","44.34586","5.221734"
"10.5","44.40069","5.246733"
"10.55","44.3387","5.2715"
"10.6","43.71881","5.2967"
"10.65","42.40592","5.3219"
"10.7","40.96031","5.346533"
"10.75","39.69272","5.371433"
"10.8","29.12283","5.396867"
"10.85","22.11094","5.421534"
"10.9","22.10538","5.446467"
"10.95","22.07597","5.471767"
"11","22.06246","5.496667"
"11.05","22.08948","5.521533"
"11.1","22.08471","5.546733"
"11.15","22.10458","5.571967"
"11.2","22.09981","5.5965"
"11.25","22.07994","5.6214"
"11.3","22.08074","5.646833"
"11.35","22.08312","5.671667"
"11.4","22.08312","5.696434"
"11.45","22.11094","5.721767"
"11.5","22.10061","5.746733"
"11.55","22.09663","5.7715"
"11.6","22.10299","5.796767"
"11.65","22.10538","5.821967"
"11.7","22.11332","5.846433"
"11.75","22.11571","5.871433"
"11.8","22.09187","5.896867"
"11.85","22.10538","5.921567"
"11.9","22.08233","5.9464"
"11.95","22.08471","5.971767"
"12","22.07836","5.996767"
"12.05","22.09663","6.021533"
"12.1","22.09425","6.046633"
"12.15","22.1022","6.071933"
"12.2","22.09345","6.096533"
"12.25","22.10538","6.121467"
"12.3","22.08948","6.1468"
"12.35","22.09345","6.1717"
"12.4","22.072","6.196467"
"12.45","22.09107","6.221734"
"12.5","22.09981","6.246634"
"12.55","22.09663","6.271433"
"12.6","22.10061","6.296733"
"12.65","22.10697","6.321967"
"12.7","22.08948","6.346533"
"12.75","22.11094","6.371433"
"12.8","22.09345","6.3969"
"12.85","22.08551","6.421767"
"12.9","22.08312","6.4465"
"12.95","22.08869","6.4718"
"13","22.08233","6.496667"
"13.05","22.09345","6.5215"
"13.1","22.08869","6.546667"
"13.15","22.11889","6.571933"
"13.2","22.10299","6.5965"
"13.25","22.09584","6.621433"
"13.3","22.10697","6.6469"
"13.35","22.11889","6.671567"
"13.4","22.09981","6.696434"
"13.45","22.09345","6.7218"
"13.5","22.10061","6.746733"
"13.55","22.09663","6.771433"
"13.6","22.09663","6.796667"
"13.65","22.10458","6.821933"
"13.7","22.10935","6.846533"
"13.75","22.11809","6.871467"
"13.79","22.13001","6.887533"