File: degradation_testing/tensile_testing/PLA/PLA_Acetone/PLA-A-5.csv
"1 _ 1",,
"Time","Force","Stroke"
"sec","N","mm"
"0","0.3568331","0.0001"
"0.04","0.8765857","0.0167"
"0.08","11.81126","0.03663334"
"0.12","27.55562","0.05646667"
"0.16","41.90604","0.07636667"
"0.2","53.38113","0.09676667"
"0.24","54.60183","0.1169"
"0.28","54.79892","0.1366"
"0.32","54.79654","0.1565"
"0.36","54.80051","0.1766667"
"0.4","54.74567","0.1969667"
"0.44","54.63441","0.2164333"
"0.48","54.57957","0.2364333"
"0.52","54.58673","0.2566667"
"0.56","54.63203","0.2767333"
"0.6","54.66541","0.2965"
"0.64","54.7115","0.3163667"
"0.68","54.84581","0.3367"
"0.72","54.96343","0.3569333"
"0.76","54.96581","0.3767"
"0.8","54.94197","0.3965"
"0.84","54.86329","0.4167333"
"0.88","54.86568","0.4369"
"0.92","55.42914","0.4567667"
"0.96","63.28106","0.4764667"
"1","73.27557","0.4966"
"1.04","83.19378","0.5169"
"1.08","98.7045","0.5367"
"1.12","113.7058","0.5565"
"1.16","128.4512","0.5765333"
"1.2","143.6122","0.5967"
"1.24","158.6692","0.6168666"
"1.28","173.4265","0.6365"
"1.32","187.2412","0.6562667"
"1.36","201.3461","0.6766"
"1.4","215.9198","0.6968667"
"1.44","229.8141","0.7164667"
"1.48","243.1202","0.7364"
"1.52","256.2578","0.7567"
"1.56","268.9481","0.7768667"
"1.6","280.5877","0.7965333"
"1.64","292.0373","0.8164667"
"1.68","302.968","0.8367667"
"1.72","313.7676","0.8567667"
"1.76","323.9504","0.8767"
"1.8","333.5325","0.8965"
"1.84","342.6425","0.9165"
"1.88","351.5355","0.9367334"
"1.92","360.4142","0.9567667"
"1.96","369.0465","0.9765"
"2","377.3109","0.9965667"
"2.04","385.5817","1.016967"
"2.08","393.8707","1.036733"
"2.12","401.965","1.0566"
"2.16","409.8709","1.0765"
"2.2","417.8929","1.096767"
"2.24","425.9849","1.116867"
"2.28","433.9433","1.136567"
"2.32","441.6212","1.1563"
"2.36","449.3149","1.176633"
"2.4","457.1875","1.1968"
"2.44","464.6063","1.216467"
"2.48","471.6698","1.236433"
"2.52","478.8748","1.2567"
"2.56","486.3517","1.2768"
"2.6","493.78","1.296467"
"2.64","500.8833","1.3164"
"2.68","507.7275","1.3367"
"2.72","514.6209","1.356767"
"2.76","521.4103","1.376733"
"2.8","527.9557","1.396533"
"2.84","534.3882","1.4166"
"2.88","540.8017","1.436867"
"2.92","547.1357","1.456667"
"2.96","552.9181","1.4765"
"3","558.4319","1.496567"
"3.04","563.8448","1.5169"
"3.08","569.1123","1.536667"
"3.12","574.1262","1.556533"
"3.16","578.2533","1.576467"
"3.2","580.922","1.596833"
"3.24","581.5577","1.616933"
"3.28","577.9814","1.636633"
"3.32","568.3621","1.6564"
"3.36","554.8604","1.6766"
"3.4","540.777","1.696967"
"3.44","527.7467","1.716467"
"3.48","516.0204","1.7365"
"3.52","506.1777","1.756767"
"3.56","497.8998","1.7768"
"3.6","490.458","1.7965"
"3.64","483.4453","1.8165"
"3.68","477.0637","1.836733"
"3.72","471.1715","1.856833"
"3.76","465.3684","1.8767"
"3.8","459.5709","1.896467"
"3.84","454.1135","1.916567"
"3.88","448.9835","1.936833"
"3.92","444.0093","1.956767"
"3.96","438.772","1.976567"
"4","433.0492","1.996567"
"4.04","427.5123","2.016933"
"4.08","422.3156","2.036667"
"4.12","417.0855","2.0566"
"4.16","411.8665","2.076533"
"4.2","406.932","2.096667"
"4.24","402.3178","2.116867"
"4.28","397.7648","2.1365"
"4.32","392.9384","2.156367"
"4.36","388.6183","2.1766"
"4.4","384.7551","2.196933"
"4.44","380.7616","2.216467"
"4.48","376.5948","2.236533"
"4.52","372.8652","2.256767"
"4.56","369.5099","2.276867"
"4.6","366.2284","2.296533"
"4.64","363.2307","2.316433"
"4.68","360.6081","2.336733"
"4.72","358.39","2.356767"
"4.76","356.3007","2.376633"
"4.8","354.2344","2.3964"
"4.84","352.4558","2.4166"
"4.88","350.8774","2.436833"
"4.92","349.0941","2.456733"
"4.96","346.9046","2.476533"
"5","344.3368","2.496633"
"5.04","342.2904","2.5169"
"5.08","340.6072","2.536733"
"5.12","338.7157","2.5565"
"5.16","336.6407","2.576467"
"5.2","334.5958","2.596767"
"5.24","332.5311","2.616867"
"5.28","330.3957","2.636433"
"5.32","327.8105","2.6564"
"5.36","324.7531","2.676633"
"5.4","320.5577","2.696933"
"5.44","316.2821","2.716467"
"5.48","312.6216","2.736467"
"5.52","309.9664","2.756767"
"5.56","308.0392","2.776733"
"5.6","306.4084","2.796533"
"5.64","304.6783","2.816433"
"5.68","301.9913","2.836733"
"5.72","299.9314","2.856867"
"5.76","298.3801","2.876733"
"5.8","296.824","2.896433"
"5.84","295.4022","2.916667"
"5.88","293.7222","2.936833"
"5.92","290.7594","2.956733"
"5.96","286.7579","2.9765"
"6","280.6361","2.996533"
"6.04","275.9949","3.016867"
"6.08","271.5516","3.036767"
"6.12","266.6378","3.0566"
"6.16","261.0517","3.076433"
"6.2","254.6199","3.096833"
"6.24","249.4971","3.116933"
"6.28","244.9489","3.1366"
"6.32","239.5018","3.156433"
"6.36","234.0976","3.176633"
"6.4","228.9748","3.196967"
"6.44","224.2271","3.2164"
"6.48","219.7186","3.236467"
"6.52","216.2679","3.2568"
"6.56","213.6731","3.2767"
"6.6","210.9679","3.296533"
"6.64","208.447","3.3164"
"6.68","206.4403","3.336767"
"6.72","204.8103","3.3569"
"6.76","203.1438","3.3767"
"6.8","200.9964","3.396433"
"6.84","199.5468","3.416633"
"6.88","197.8437","3.4369"
"6.92","192.5111","3.456733"
"6.96","187.0298","3.476567"
"7","184.1275","3.496633"
"7.04","181.6273","3.516867"
"7.08","179.8415","3.5366"
"7.12","178.1249","3.556533"
"7.16","176.2811","3.576433"
"7.2","175.031","3.596767"
"7.24","174.0964","3.616833"
"7.28","173.3049","3.636567"
"7.32","172.6452","3.6565"
"7.36","172.0993","3.676667"
"7.4","171.5175","3.697"
"7.44","170.7681","3.7165"
"7.48","169.5228","3.736433"
"7.52","168.6064","3.756733"
"7.56","167.9079","3.7769"
"7.6","166.5997","3.7965"
"7.64","164.2609","3.816367"
"7.68","162.0205","3.836667"
"7.72","159.7865","3.8568"
"7.76","158.2169","3.876733"
"7.8","156.4757","3.8965"
"7.84","153.8626","3.916567"
"7.88","150.6464","3.936833"
"7.92","146.0044","3.956767"
"7.96","136.927","3.976533"
"8","131.6674","3.9966"
"8.04","128.3765","4.016867"
"8.08","125.5584","4.036733"
"8.12","123.0582","4.056567"
"8.16","121.9702","4.0765"
"8.2","121.3638","4.096767"
"8.24","120.875","4.116967"
"8.28","120.5659","4.136567"
"8.32","120.2981","4.156434"
"8.36","120.2329","4.1766"
"8.4","120.2909","4.196933"
"8.44","120.3624","4.216434"
"8.48","120.3179","4.236434"
"8.52","120.3195","4.256667"
"8.56","120.4316","4.276767"
"8.6","120.4944","4.296566"
"8.64","120.4626","4.316467"
"8.68","120.4109","4.336767"
"8.72","120.4491","4.356867"
"8.76","120.4363","4.3767"
"8.8","120.3219","4.396467"
"8.84","120.2257","4.416634"
"8.88","120.275","4.4368"
"8.92","120.2909","4.456667"
"8.96","120.2401","4.476433"
"9","120.0899","4.496567"
"9.04","119.9269","4.516933"
"9.08","119.5534","4.5367"
"9.12","118.8644","4.5566"
"9.16","117.6174","4.5765"
"9.2","115.1609","4.596767"
"9.24","112.613","4.616933"
"9.28","110.7271","4.6366"
"9.32","108.6473","4.656466"
"9.36","103.2726","4.676567"
"9.4","99.9252","4.6969"
"9.44","97.87241","4.716467"
"9.48","95.97063","4.736467"
"9.52","93.24471","4.7567"
"9.56","85.27358","4.776834"
"9.6","77.87784","4.796566"
"9.64","73.23981","4.8164"
"9.68","60.08069","4.836767"
"9.72","20.10584","4.856833"
"9.76","18.50685","4.876767"
"9.8","18.48857","4.896467"
"9.84","18.47824","4.916567"
"9.88","18.48062","4.9369"
"9.92","18.47744","4.956767"
"9.96","18.48618","4.976533"
"10","18.49492","4.996567"
"10.04","18.47506","5.0169"
"10.08","18.44486","5.0366"
"10.12","18.40194","5.056567"
"10.16","18.40035","5.0765"
"10.2","18.3924","5.0967"
"10.24","18.38446","5.1169"
"10.28","18.38605","5.1366"
"10.32","18.4083","5.1565"
"10.36","18.41784","5.176633"
"10.4","18.42022","5.196933"
"10.44","18.43929","5.2164"
"10.48","18.45121","5.236434"
"10.52","18.47108","5.256667"
"10.56","18.4536","5.276834"
"10.6","18.43532","5.296534"
"10.64","18.41068","5.3164"
"10.68","18.40591","5.3367"
"10.72","18.3781","5.356833"
"10.76","18.36856","5.376733"
"10.8","18.36618","5.3965"
"10.84","18.37333","5.416667"
"10.88","18.40353","5.436833"
"10.9","18.39956","5.441433"