File: degradation_testing/tensile_testing/PLA/PLA_Acetone/PLA-A-2.csv
"1 _ 1",,
"Time","Force","Stroke"
"sec","N","mm"
"0","0.6167094","6.666667E-05"
"0.04","0.9131432","0.01553333"
"0.08","9.720325","0.03626667"
"0.12","26.20856","0.0567"
"0.16","43.05601","0.07666667"
"0.2","58.83853","0.09646667"
"0.24","63.94545","0.1166"
"0.28","63.99711","0.1367667"
"0.32","63.98996","0.1568333"
"0.36","64.01221","0.1766333"
"0.4","64.01778","0.1963667"
"0.44","64.02334","0.2167667"
"0.48","64.06387","0.2368667"
"0.52","64.04321","0.2564"
"0.56","64.05512","0.2764667"
"0.6","64.05672","0.2968"
"0.64","64.04639","0.3168667"
"0.68","64.06466","0.3364"
"0.72","64.14811","0.3564333"
"0.76","64.15367","0.3766333"
"0.8","64.18626","0.3969333"
"0.84","64.20692","0.4166333"
"0.88","64.22281","0.4363"
"0.92","64.25778","0.4566333"
"0.96","65.70419","0.4768"
"1","75.03986","0.4967"
"1.04","88.81251","0.5164"
"1.08","103.2495","0.5366333"
"1.12","118.5727","0.5567333"
"1.16","134.836","0.5766"
"1.2","150.8951","0.5964333"
"1.24","166.4082","0.6165"
"1.28","182.4371","0.6368334"
"1.32","198.5017","0.6567"
"1.36","213.8662","0.6765333"
"1.4","228.862","0.6963667"
"1.44","243.9721","0.7167667"
"1.48","259.3176","0.7368333"
"1.52","274.388","0.7564334"
"1.56","288.8322","0.7764333"
"1.6","303.4433","0.7968"
"1.64","318.3842","0.8168"
"1.68","333.0445","0.8363667"
"1.72","347.3282","0.8565"
"1.76","361.4998","0.8766333"
"1.8","375.6539","0.8969"
"1.84","389.4226","0.9165667"
"1.88","402.739","0.9362333"
"1.92","415.9013","0.9566"
"1.96","429.2703","0.9768"
"2","442.4914","0.9966667"
"2.04","455.1967","1.016333"
"2.08","467.4983","1.036733"
"2.12","479.8516","1.056933"
"2.16","491.8655","1.076633"
"2.2","503.1697","1.096467"
"2.24","513.9605","1.116567"
"2.28","524.532","1.1368"
"2.32","534.6759","1.156767"
"2.36","543.8741","1.1766"
"2.4","551.6251","1.1962"
"2.44","557.7763","1.216633"
"2.48","562.6583","1.236833"
"2.52","565.9517","1.256467"
"2.56","567.4926","1.276467"
"2.6","567.7104","1.2968"
"2.64","566.8028","1.3168"
"2.68","564.4584","1.3364"
"2.72","560.7589","1.356567"
"2.76","556.0016","1.376567"
"2.8","550.0651","1.396867"
"2.84","543.0095","1.416667"
"2.88","535.3331","1.4362"
"2.92","527.8087","1.456567"
"2.96","521.3126","1.476867"
"3","515.3688","1.496633"
"3.04","509.4663","1.5164"
"3.08","504.0487","1.536733"
"3.12","499.3709","1.556833"
"3.16","495.0643","1.576633"
"3.2","490.7854","1.5965"
"3.24","486.6846","1.616567"
"3.28","482.9502","1.636767"
"3.32","479.3024","1.6568"
"3.36","475.5266","1.6766"
"3.4","471.6754","1.696367"
"3.44","468.1206","1.7168"
"3.48","464.6953","1.736767"
"3.52","460.9656","1.756433"
"3.56","457.1088","1.776467"
"3.6","453.6049","1.7968"
"3.64","450.4426","1.816733"
"3.68","447.1858","1.836333"
"3.72","443.8019","1.8565"
"3.76","440.7414","1.876633"
"3.8","438.0171","1.8969"
"3.84","435.2061","1.916633"
"3.88","432.0916","1.9363"
"3.92","429.1614","1.9566"
"3.96","426.8432","1.9769"
"4","424.761","1.996633"
"4.04","422.4674","2.0164"
"4.08","420.262","2.036733"
"4.12","418.5812","2.056767"
"4.16","417.0378","2.076633"
"4.2","415.3999","2.096467"
"4.24","413.5601","2.116633"
"4.28","411.7409","2.136833"
"4.32","409.9647","2.156733"
"4.36","408.0558","2.1766"
"4.4","406.0833","2.196433"
"4.44","404.3396","2.216733"
"4.48","402.7907","2.236933"
"4.52","401.0781","2.256433"
"4.56","398.5548","2.276467"
"4.6","396.3407","2.2968"
"4.64","394.2402","2.3168"
"4.68","391.7623","2.3364"
"4.72","389.049","2.356567"
"4.76","386.5313","2.3765"
"4.8","383.6401","2.396833"
"4.84","380.47","2.416567"
"4.88","376.8333","2.436267"
"4.92","373.3452","2.456633"
"4.96","370.1877","2.476867"
"5","366.5972","2.496667"
"5.04","361.6563","2.5164"
"5.08","356.7203","2.536733"
"5.12","351.8716","2.556733"
"5.16","346.632","2.576733"
"5.2","340.12","2.5965"
"5.24","332.3174","2.6166"
"5.28","326.2448","2.636767"
"5.32","321.0489","2.656767"
"5.36","316.2289","2.6766"
"5.4","311.1204","2.6964"
"5.44","305.1217","2.716767"
"5.48","298.8839","2.736833"
"5.52","293.2231","2.7565"
"5.56","288.5445","2.7765"
"5.6","284.5558","2.796867"
"5.64","281.4484","2.816833"
"5.68","279.1762","2.836367"
"5.72","276.6887","2.856433"
"5.76","272.8335","2.876667"
"5.8","268.9902","2.896933"
"5.84","265.1461","2.9166"
"5.88","259.769","2.936233"
"5.92","252.9923","2.9567"
"5.96","247.8194","2.976867"
"6","242.2531","2.996733"
"6.04","237.8162","3.0163"
"6.08","234.5816","3.036667"
"6.12","231.0769","3.056733"
"6.16","226.8902","3.0767"
"6.2","223.0279","3.096467"
"6.24","217.2311","3.1166"
"6.28","211.0283","3.1368"
"6.32","204.9375","3.156833"
"6.36","194.6521","3.1766"
"6.4","185.5667","3.1964"
"6.44","180.0831","3.2168"
"6.48","176.3725","3.236833"
"6.52","173.2206","3.256467"
"6.56","169.8168","3.276433"
"6.6","166.3542","3.296733"
"6.64","163.7141","3.316833"
"6.68","160.9397","3.336433"
"6.72","157.7687","3.356467"
"6.76","153.7856","3.376667"
"6.8","149.5091","3.396933"
"6.84","144.5333","3.416667"
"6.88","140.3705","3.436267"
"6.92","135.2835","3.456633"
"6.96","130.2298","3.476867"
"7","124.5586","3.496633"
"7.04","119.4795","3.516333"
"7.08","116.1138","3.536767"
"7.12","113.5763","3.556667"
"7.16","111.0125","3.576567"
"7.2","107.6261","3.5965"
"7.24","104.3797","3.616633"
"7.28","101.7968","3.636833"
"7.32","99.24332","3.6568"
"7.36","95.222","3.676533"
"7.4","91.75301","3.696433"
"7.44","88.46839","3.716833"
"7.48","83.62054","3.736767"
"7.52","77.74751","3.756533"
"7.56","73.06815","3.776467"
"7.6","67.35881","3.796767"
"7.64","61.94194","3.816833"
"7.68","31.47284","3.8364"
"7.72","28.25101","3.8565"
"7.76","28.29552","3.8766"
"7.8","28.22002","3.8969"
"7.84","28.18028","3.916567"
"7.88","28.14054","3.9363"
"7.92","28.06664","3.956667"
"7.96","27.97047","3.976867"
"8","27.91246","3.9966"
"8.04","27.90769","4.016366"
"8.08","27.89259","4.0367"
"8.12","27.87431","4.056867"
"8.16","27.85683","4.0767"
"8.2","27.85921","4.0964"
"8.24","27.83855","4.1165"
"8.28","27.84809","4.1368"
"8.32","27.85285","4.1568"
"8.36","27.85047","4.176567"
"8.4","27.85603","4.196367"
"8.44","27.88544","4.216767"
"8.48","27.87193","4.236767"
"8.52","27.89497","4.2565"
"8.56","27.88862","4.2765"
"8.6","27.88305","4.296767"
"8.64","27.88146","4.316733"
"8.68","27.86557","4.336433"
"8.72","27.85683","4.3565"
"8.76","27.8608","4.376667"
"8.8","27.85285","4.396934"
"8.84","27.85683","4.416567"
"8.88","27.8767","4.4363"
"8.92","27.86795","4.4567"
"8.96","27.87034","4.476867"
"9","27.89021","4.496634"
"9.04","27.89656","4.516334"
"9.08","27.87908","4.5367"
"9.12","27.86795","4.556833"
"9.16","27.85842","4.576667"
"9.2","27.86954","4.596533"
"9.24","27.85047","4.6166"
"9.28","27.85444","4.6368"
"9.32","27.8608","4.6568"
"9.36","27.85206","4.6766"
"9.4","27.87272","4.6964"
"9.44","27.8608","4.716733"
"9.48","27.87749","4.736667"
"9.52","27.86954","4.7564"
"9.56","27.89656","4.776467"
"9.6","27.89497","4.7968"
"9.64","27.88146","4.816867"
"9.68","27.86318","4.836433"
"9.72","27.85842","4.856433"
"9.76","27.8457","4.876633"
"9.8","27.8457","4.896967"
"9.84","27.85842","4.916567"
"9.87","27.83696","4.925267"