File: degradation_testing/tensile_testing/PLA/PLA_Acetone/PLA-A-3.csv
"1 _ 1",,
"Time","Force","Stroke"
"sec","N","mm"
"0","0.3925959","6.666667E-05"
"0.03","0.4402796","0.01066667"
"0.06","2.988179","0.02593333"
"0.09","12.81897","0.04113333"
"0.12","24.40135","0.05656667"
"0.15","35.11508","0.0717"
"0.18","44.9276","0.0867"
"0.21","54.10035","0.1015333"
"0.24","58.38553","0.1164333"
"0.27","58.61123","0.1314333"
"0.3","58.68435","0.1467"
"0.33","58.74634","0.1617333"
"0.36","58.70422","0.1766667"
"0.39","58.62395","0.1913667"
"0.42","58.53891","0.2064"
"0.45","58.46103","0.2216333"
"0.48","58.40142","0.2367667"
"0.51","58.35692","0.2519667"
"0.54","58.37679","0.2667"
"0.57","58.4197","0.2816333"
"0.6","58.49123","0.2963667"
"0.63","58.50871","0.3116"
"0.66","58.53097","0.3268"
"0.69","58.66289","0.3416667"
"0.72","58.77813","0.3564"
"0.75","58.84011","0.3713333"
"0.78","58.81389","0.3866333"
"0.81","58.77574","0.4018333"
"0.84","58.7217","0.4167667"
"0.87","58.63984","0.4316667"
"0.9","58.64938","0.4465334"
"0.93","58.75587","0.4614334"
"0.96","59.16436","0.4767"
"0.99","61.6161","0.4918333"
"1.02","69.53558","0.5068"
"1.05","80.25328","0.5214667"
"1.08","91.94295","0.5362"
"1.11","103.2066","0.5514"
"1.14","114.4656","0.5665333"
"1.17","126.2895","0.5818334"
"1.2","138.2176","0.5967"
"1.23","149.9303","0.6114333"
"1.26","161.4491","0.6262667"
"1.29","172.7525","0.6416"
"1.32","183.8509","0.6568334"
"1.35","195.175","0.6717667"
"1.38","206.3648","0.6864667"
"1.41","217.282","0.7014"
"1.44","227.9027","0.7164667"
"1.47","238.5529","0.7315667"
"1.5","249.4582","0.7468"
"1.53","260.1663","0.7617667"
"1.56","270.6734","0.7765"
"1.59","280.8142","0.7913333"
"1.62","291.1139","0.8066"
"1.65","301.4056","0.8217"
"1.68","311.7426","0.8369667"
"1.71","321.8818","0.8516"
"1.74","331.5751","0.8664667"
"1.77","340.9012","0.8814"
"1.8","350.2305","0.8966667"
"1.83","359.3731","0.9117"
"1.86","368.1461","0.9266334"
"1.89","376.4621","0.9413667"
"1.92","384.3896","0.9564"
"1.95","392.1414","0.9715334"
"1.98","399.886","0.9867"
"2.01","407.4764","1.001833"
"2.04","414.7506","1.0167"
"2.07","421.7243","1.031633"
"2.1","428.4422","1.046433"
"2.13","435.0249","1.061567"
"2.16","441.699","1.076733"
"2.19","448.2277","1.0918"
"2.22","454.7556","1.1064"
"2.25","460.999","1.1213"
"2.28","467.1041","1.1366"
"2.31","473.3546","1.1517"
"2.34","479.6322","1.1667"
"2.37","485.8152","1.181533"
"2.4","491.8543","1.196367"
"2.43","497.7767","1.211367"
"2.46","503.7411","1.226667"
"2.49","509.8923","1.2418"
"2.52","515.9807","1.256833"
"2.55","521.8696","1.2714"
"2.58","527.3835","1.286467"
"2.61","532.8878","1.301367"
"2.64","538.3603","1.316667"
"2.67","544.0052","1.3319"
"2.7","549.5572","1.346733"
"2.73","554.9185","1.3614"
"2.76","560.05","1.376367"
"2.79","565.2698","1.391733"
"2.82","570.3473","1.406967"
"2.85","575.1498","1.421733"
"2.88","579.4796","1.436467"
"2.91","583.2561","1.4515"
"2.94","586.0877","1.4665"
"2.97","587.7678","1.481567"
"3","588.2032","1.496833"
"3.03","587.012","1.511767"
"3.06","583.3602","1.5265"
"3.09","575.5496","1.541267"
"3.12","564.4647","1.5566"
"3.15","552.7401","1.571733"
"3.18","541.8206","1.5869"
"3.21","532.0716","1.6016"
"3.24","523.3955","1.616467"
"3.27","515.6907","1.631433"
"3.3","509.154","1.646767"
"3.33","503.5806","1.661867"
"3.36","498.5174","1.6767"
"3.39","493.6194","1.6914"
"3.42","488.9305","1.706367"
"3.45","484.5969","1.721567"
"3.48","480.6733","1.736767"
"3.51","477.1002","1.7519"
"3.54","473.5438","1.766667"
"3.57","470.0152","1.7816"
"3.6","466.555","1.7962"
"3.63","463.4611","1.8115"
"3.66","460.6851","1.8267"
"3.69","458.1396","1.841667"
"3.72","455.6243","1.856467"
"3.75","452.9874","1.871333"
"3.78","450.3894","1.886533"
"3.81","447.9353","1.9018"
"3.84","445.7164","1.916767"
"3.87","443.5635","1.931667"
"3.9","441.3764","1.946533"
"3.93","439.2362","1.961567"
"3.96","437.2207","1.976667"
"3.99","435.3531","1.991733"
"4.02","433.4958","2.0068"
"4.05","431.6632","2.021567"
"4.08","429.6653","2.0363"
"4.11","427.6411","2.0513"
"4.14","425.7123","2.066633"
"4.17","424.0123","2.081833"
"4.2","421.9858","2.096767"
"4.23","419.5849","2.1115"
"4.26","416.9067","2.1264"
"4.29","414.3008","2.1417"
"4.32","411.8244","2.1569"
"4.35","409.6285","2.171733"
"4.38","407.3946","2.186467"
"4.41","405.0867","2.2014"
"4.44","402.8845","2.216433"
"4.47","400.8754","2.2317"
"4.5","399.0761","2.246767"
"4.53","397.1481","2.261733"
"4.56","395.0206","2.276533"
"4.59","392.5959","2.2914"
"4.62","390.2745","2.306567"
"4.65","388.027","2.321833"
"4.68","385.9583","2.3369"
"4.71","383.8722","2.351533"
"4.74","381.5842","2.366433"
"4.77","379.2946","2.381433"
"4.8","376.9906","2.396667"
"4.83","374.4395","2.411733"
"4.86","371.755","2.4266"
"4.89","368.9178","2.441267"
"4.92","365.9677","2.456333"
"4.95","363.3086","2.471567"
"4.98","360.9467","2.486733"
"5.01","358.7961","2.501967"
"5.04","356.8268","2.5167"
"5.07","354.7279","2.531567"
"5.1","352.4423","2.546367"
"5.13","350.2305","2.561567"
"5.16","348.3137","2.5768"
"5.19","346.5565","2.591733"
"5.22","344.7175","2.606433"
"5.25","342.838","2.621367"
"5.28","341.2485","2.6366"
"5.31","339.8101","2.651733"
"5.34","338.1141","2.666767"
"5.37","336.2076","2.6816"
"5.4","334.2843","2.696467"
"5.43","332.369","2.7115"
"5.46","330.8105","2.726667"
"5.49","329.4849","2.7418"
"5.52","328.2698","2.756833"
"5.55","326.9514","2.7715"
"5.58","325.1394","2.7865"
"5.61","323.5054","2.801433"
"5.64","321.9573","2.816567"
"5.67","320.2685","2.831933"
"5.7","318.0726","2.846667"
"5.73","315.326","2.861433"
"5.76","312.4221","2.876433"
"5.79","309.5913","2.891733"
"5.82","306.7398","2.9069"
"5.85","303.8088","2.921767"
"5.88","300.4908","2.936433"
"5.91","296.2645","2.951467"
"5.94","292.1049","2.9665"
"5.97","287.9548","2.981533"
"6","283.5099","2.996733"
"6.03","278.8711","3.011667"
"6.06","273.6608","3.026467"
"6.09","268.2551","3.0413"
"6.12","262.3375","3.056567"
"6.15","255.9344","3.0718"
"6.18","249.9183","3.0869"
"6.21","243.907","3.1016"
"6.24","238.874","3.1165"
"6.27","234.4219","3.1315"
"6.3","229.6233","3.1467"
"6.33","224.0253","3.161733"
"6.36","217.7819","3.176667"
"6.39","212.2927","3.191367"
"6.42","207.9137","3.2064"
"6.45","204.1451","3.221633"
"6.48","200.1357","3.236667"
"6.51","195.0757","3.2519"
"6.54","191.4906","3.266733"
"6.57","188.1369","3.281533"
"6.6","185.7122","3.296333"
"6.63","183.8843","3.311633"
"6.66","182.4617","3.326833"
"6.69","180.7777","3.3418"
"6.72","177.5638","3.356367"
"6.75","174.4175","3.371367"
"6.78","171.5422","3.3866"
"6.81","169.3392","3.401833"
"6.84","166.4972","3.416767"
"6.87","162.4258","3.431667"
"6.9","158.8345","3.446467"
"6.93","154.6073","3.4615"
"6.96","147.5891","3.4767"
"6.99","138.588","3.491767"
"7.02","129.5757","3.5068"
"7.05","123.2314","3.521533"
"7.08","118.1889","3.536233"
"7.11","114.3535","3.5514"
"7.14","110.809","3.566633"
"7.17","107.8312","3.581833"
"7.2","105.8428","3.596633"
"7.23","103.8893","3.611467"
"7.26","102.032","3.626367"
"7.29","100.4124","3.641667"
"7.32","98.87616","3.656767"
"7.35","97.50525","3.6718"
"7.38","96.11368","3.6865"
"7.41","94.44793","3.701433"
"7.44","92.68443","3.716467"
"7.47","91.43591","3.731633"
"7.5","90.3217","3.746833"
"7.53","88.67582","3.7617"
"7.56","86.45137","3.7765"
"7.59","83.95195","3.791333"
"7.62","81.24352","3.806633"
"7.65","76.83675","3.8218"
"7.68","66.88039","3.8369"
"7.71","48.26625","3.8516"
"7.74","24.46334","3.866467"
"7.76","22.86037","3.8712"