File: degradation_testing/tensile_testing/PLA/PLA_Acetone/PLA-A-1.csv
"1 _ 1",,
"Time","Force","Stroke"
"sec","N","mm"
"0","0.5141894","0.0001"
"0.05","1.461506","0.02096667"
"0.1","17.13594","0.04653334"
"0.15","36.35963","0.0714"
"0.2","46.44791","0.09636667"
"0.25","46.75309","0.1217667"
"0.3","46.73799","0.1468"
"0.35","46.71335","0.1713333"
"0.4","46.75309","0.1966333"
"0.45","46.80157","0.2218667"
"0.5","46.80793","0.2465333"
"0.55","46.83097","0.2716333"
"0.6","46.79998","0.2967667"
"0.65","46.8421","0.3214667"
"0.7","46.87707","0.3464333"
"0.75","46.90965","0.3718333"
"0.8","46.9319","0.3967667"
"0.85","47.00899","0.4214667"
"0.9","47.18781","0.4466333"
"0.95","52.99091","0.4719333"
"1","67.5869","0.4965"
"1.05","78.92688","0.5215667"
"1.1","95.12822","0.5467"
"1.15","114.1421","0.5715"
"1.2","132.9001","0.5965"
"1.25","151.2822","0.6217334"
"1.3","169.328","0.6466666"
"1.35","186.7692","0.6712667"
"1.4","203.7319","0.6965333"
"1.45","220.7351","0.7218333"
"1.5","237.2122","0.7465333"
"1.55","252.5894","0.7715667"
"1.6","267.4206","0.7968667"
"1.65","282.4179","0.8215333"
"1.7","295.4483","0.8464333"
"1.75","307.831","0.8718333"
"1.8","320.0499","0.8967"
"1.85","331.2238","0.9214333"
"1.9","342.044","0.9465333"
"1.95","353.2386","0.9719334"
"2","364.3362","0.9965333"
"2.05","374.8766","1.021633"
"2.1","385.4791","1.046733"
"2.15","395.9012","1.0715"
"2.2","406.0427","1.096533"
"2.25","416.3782","1.121767"
"2.3","426.7407","1.146833"
"2.35","436.7256","1.1713"
"2.4","446.5302","1.196467"
"2.45","456.8013","1.221867"
"2.5","466.7799","1.246533"
"2.55","476.3889","1.2716"
"2.6","486.1848","1.296733"
"2.65","495.6102","1.321467"
"2.7","504.7234","1.346467"
"2.75","513.8691","1.3717"
"2.8","523.049","1.396733"
"2.85","531.6822","1.4215"
"2.9","539.6978","1.446633"
"2.95","547.0872","1.471967"
"3","553.7788","1.4965"
"3.05","558.691","1.5216"
"3.1","560.9115","1.546667"
"3.15","559.1718","1.571433"
"3.2","551.4312","1.596567"
"3.25","537.1642","1.6218"
"3.3","521.0519","1.646767"
"3.35","505.8503","1.671367"
"3.4","492.9415","1.6966"
"3.45","482.5393","1.721933"
"3.5","473.5279","1.746533"
"3.55","465.463","1.7716"
"3.6","458.649","1.796733"
"3.65","452.5352","1.821467"
"3.7","446.9816","1.846533"
"3.75","442.1767","1.871767"
"3.8","437.9113","1.896733"
"3.85","433.739","1.921433"
"3.9","430.1938","1.946533"
"3.95","427.3097","1.972067"
"4","424.5583","1.9965"
"4.05","421.5145","2.021667"
"4.1","419.0779","2.046767"
"4.15","416.5975","2.071467"
"4.2","413.8033","2.0966"
"4.25","411.3913","2.1217"
"4.3","409.2065","2.146733"
"4.35","406.9392","2.1713"
"4.4","404.7307","2.1966"
"4.45","403.0005","2.221867"
"4.5","401.0296","2.2466"
"4.55","398.7177","2.271633"
"4.6","396.6236","2.296733"
"4.65","394.4619","2.321533"
"4.7","392.0913","2.346533"
"4.75","389.9892","2.371633"
"4.8","388.0548","2.396767"
"4.85","385.9758","2.421367"
"4.9","383.8762","2.4466"
"4.95","382.2223","2.471933"
"5","380.2443","2.496567"
"5.05","377.8235","2.5216"
"5.1","375.8216","2.546733"
"5.15","373.826","2.571433"
"5.2","371.4697","2.596467"
"5.25","369.2961","2.6218"
"5.3","367.1495","2.6468"
"5.35","364.5031","2.671233"
"5.4","361.5006","2.6966"
"5.45","358.3678","2.721933"
"5.5","354.9163","2.746533"
"5.55","350.9935","2.771633"
"5.6","347.6453","2.796633"
"5.65","344.3034","2.821467"
"5.7","340.5706","2.8465"
"5.75","336.6868","2.871767"
"5.8","333.2289","2.896733"
"5.85","329.442","2.9214"
"5.9","325.5201","2.9467"
"5.95","322.0161","2.971933"
"6","318.2252","2.9965"
"6.05","314.3318","3.021567"
"6.1","310.9876","3.0466"
"6.15","307.258","3.071533"
"6.2","302.0612","3.096433"
"6.25","297.5567","3.121767"
"6.3","293.7961","3.146867"
"6.35","289.77","3.1713"
"6.4","285.4808","3.1966"
"6.45","281.5262","3.221867"
"6.5","278.0906","3.2465"
"6.55","274.9737","3.271667"
"6.6","272.1357","3.296633"
"6.65","268.3703","3.321433"
"6.7","262.839","3.346533"
"6.75","257.4182","3.371767"
"6.8","252.9438","3.396767"
"6.85","248.5307","3.421367"
"6.9","243.3634","3.4467"
"6.95","239.1497","3.471933"
"7","235.0656","3.496633"
"7.05","230.9465","3.5217"
"7.1","227.3496","3.5466"
"7.15","224.4051","3.5715"
"7.2","220.5944","3.596533"
"7.25","216.4904","3.621733"
"7.3","213.182","3.646733"
"7.35","210.5562","3.671333"
"7.4","207.2056","3.696633"
"7.45","203.317","3.721933"
"7.5","200.5156","3.746533"
"7.55","198.2745","3.771667"
"7.6","195.8044","3.7968"
"7.65","191.7219","3.821533"
"7.7","188.5462","3.8464"
"7.75","186.1517","3.871733"
"7.8","183.8795","3.8967"
"7.85","179.4402","3.921467"
"7.9","176.2621","3.9466"
"7.95","174.4262","3.9719"
"8","172.1549","3.996567"
"8.05","168.283","4.021633"
"8.1","165.6207","4.0467"
"8.15","162.5347","4.0715"
"8.2","159.9868","4.0965"
"8.25","156.5345","4.121833"
"8.3","154.1885","4.1468"
"8.35","152.2541","4.1713"
"8.4","149.8485","4.196533"
"8.45","146.8674","4.221933"
"8.5","144.4546","4.246467"
"8.55","142.1014","4.2716"
"8.6","139.0807","4.2968"
"8.65","136.3365","4.3215"
"8.7","133.8617","4.346533"
"8.75","130.6613","4.3718"
"8.8","127.9807","4.396733"
"8.85","126.2673","4.421467"
"8.9","124.9901","4.446633"
"8.95","122.9723","4.471833"
"9","120.3752","4.4965"
"9.05","117.8885","4.521633"
"9.1","115.7904","4.5467"
"9.15","113.3529","4.5715"
"9.2","106.5222","4.596567"
"9.25","101.3811","4.6217"
"9.3","98.10448","4.6468"
"9.35","95.30386","4.671333"
"9.4","87.80717","4.6966"
"9.45","82.87589","4.721867"
"9.5","81.13623","4.7465"
"9.55","80.19527","4.7716"
"9.6","79.65406","4.7968"
"9.65","79.0747","4.821434"
"9.7","78.56767","4.8465"
"9.75","78.05824","4.871733"
"9.8","77.1149","4.8968"
"9.85","75.92201","4.921467"
"9.9","75.04622","4.946633"
"9.95","74.48594","4.971933"
"10","73.88671","4.996533"
"10.05","73.02205","5.021567"
"10.1","72.04135","5.046733"
"10.15","70.11652","5.0715"
"10.2","68.89899","5.0965"
"10.25","68.08519","5.121733"
"10.3","67.39696","5.146733"
"10.35","65.97201","5.171367"
"10.4","64.21327","5.196633"
"10.45","62.17957","5.2219"
"10.5","59.36702","5.246467"
"10.55","57.02813","5.271634"
"10.6","55.16211","5.2968"
"10.65","52.57209","5.321533"
"10.7","48.37354","5.3465"
"10.75","46.44791","5.3717"
"10.8","18.3932","5.396733"
"10.85","13.81159","5.421467"
"10.9","12.90878","5.446633"
"10.95","11.52833","5.4719"
"11","10.79241","5.4965"
"11.05","10.5683","5.521667"
"11.1","10.51188","5.546767"
"11.15","10.5389","5.5715"
"11.2","10.48962","5.596533"
"11.25","10.57863","5.621767"
"11.3","10.57227","5.646733"
"11.35","10.54843","5.671233"
"11.4","10.54287","5.696567"
"11.45","10.55956","5.7219"
"11.5","10.51505","5.746533"
"11.55","10.50711","5.771667"
"11.6","10.523","5.7968"
"11.65","10.52936","5.821567"
"11.7","10.53413","5.846533"
"11.75","10.55638","5.871767"
"11.8","10.55638","5.896733"
"11.85","10.56194","5.921367"
"11.9","10.55082","5.9466"
"11.95","10.55717","5.971967"
"12","10.54287","5.9965"
"12.05","10.51267","6.0216"
"12.1","10.50949","6.0468"
"12.15","10.51426","6.071533"
"12.2","10.53174","6.096467"
"12.25","10.5389","6.1217"
"12.3","10.56353","6.146833"
"12.35","10.57625","6.171333"
"12.4","10.56115","6.1966"
"12.45","10.54128","6.221867"
"12.5","10.54843","6.2465"
"12.55","10.54128","6.271667"
"12.6","10.52936","6.2968"
"12.65","10.54605","6.321434"
"12.7","10.54525","6.346434"
"12.75","10.54605","6.3718"
"12.8","10.56115","6.396767"
"12.85","10.54366","6.421433"
"12.9","10.5683","6.446667"
"12.95","10.55082","6.471967"
"13","10.52618","6.496567"
"13.05","10.53492","6.521567"
"13.1","10.51267","6.546667"
"13.15","10.51664","6.571467"
"13.2","10.52141","6.596567"
"13.25","10.523","6.621767"
"13.3","10.55241","6.6467"
"13.35","10.56592","6.6713"
"13.4","10.56115","6.696667"
"13.45","10.53174","6.721933"
"13.5","10.5389","6.746533"
"13.55","10.53015","6.771634"
"13.6","10.53015","6.796767"
"13.65","10.52539","6.821533"
"13.7","10.5389","6.846367"
"13.75","10.54525","6.871767"
"13.8","10.54128","6.896733"
"13.85","10.55876","6.921467"
"13.9","10.57466","6.9466"
"13.95","10.55082","6.971967"
"14","10.54764","6.996567"
"14.04","10.53015","7.010133"