File: degradation_testing/tensile_testing/PLA/PLA_Acetone/PLA-A-4.csv
"1 _ 1",,
"Time","Force","Stroke"
"sec","N","mm"
"0","0.5197525","6.666667E-05"
"0.03","0.5666415","0.01073333"
"0.06","2.731482","0.02596667"
"0.09","11.14051","0.04146667"
"0.12","21.49423","0.0566"
"0.15","31.9767","0.07163333"
"0.18","42.21678","0.0863"
"0.21","51.88783","0.1012"
"0.24","61.10509","0.1164333"
"0.27","66.4099","0.1317333"
"0.3","66.73495","0.1469333"
"0.33","66.78343","0.1617667"
"0.36","66.83747","0.1765667"
"0.39","66.85575","0.1913667"
"0.42","66.8772","0.2067"
"0.45","66.8335","0.2218333"
"0.48","66.85098","0.2368667"
"0.51","66.80886","0.2515"
"0.54","66.82873","0.2664"
"0.57","66.8478","0.2816"
"0.6","66.84621","0.2967333"
"0.63","66.84462","0.3118"
"0.66","66.83985","0.3266"
"0.69","66.85257","0.3414333"
"0.72","66.93124","0.3564333"
"0.75","66.998","0.3716667"
"0.78","67.02741","0.3868333"
"0.81","67.04251","0.4019"
"0.84","67.0441","0.4165334"
"0.87","67.04649","0.4314667"
"0.9","67.04649","0.4464333"
"0.93","67.06238","0.4616"
"0.96","67.11562","0.4768667"
"0.99","67.93658","0.4918"
"1.02","71.59869","0.5064667"
"1.05","78.90224","0.5213667"
"1.08","87.80956","0.5366667"
"1.11","97.10074","0.5517667"
"1.14","106.1479","0.5667"
"1.17","115.2277","0.5816"
"1.2","125.1761","0.5965"
"1.23","135.235","0.6114666"
"1.26","145.4314","0.6265666"
"1.29","155.468","0.6417333"
"1.32","165.3687","0.6567"
"1.35","175.2003","0.6714666"
"1.38","184.8332","0.6862333"
"1.41","194.3906","0.7015667"
"1.44","203.9615","0.7167667"
"1.47","213.6056","0.7318333"
"1.5","223.1948","0.7466"
"1.53","232.5439","0.7614667"
"1.56","241.5538","0.7765334"
"1.59","250.624","0.7916667"
"1.62","259.7117","0.8067667"
"1.65","268.7756","0.8217334"
"1.68","277.7131","0.8364"
"1.71","286.3836","0.8513667"
"1.74","294.869","0.8665667"
"1.77","303.3717","0.8817"
"1.8","311.7768","0.8969333"
"1.83","319.976","0.9118"
"1.86","327.9058","0.9266"
"1.89","335.5392","0.9413667"
"1.92","343.039","0.9566"
"1.95","350.3601","0.9717333"
"1.98","357.5388","0.9866667"
"2.01","364.4681","1.0014"
"2.04","371.0047","1.016367"
"2.07","377.3085","1.031567"
"2.1","383.5265","1.046867"
"2.13","389.7548","1.0617"
"2.16","395.7105","1.076667"
"2.19","401.4977","1.0915"
"2.22","407.0401","1.106467"
"2.25","412.6485","1.1217"
"2.28","418.3912","1.136867"
"2.31","424.068","1.151867"
"2.34","429.6796","1.166567"
"2.37","435.1227","1.181267"
"2.4","440.5109","1.196333"
"2.43","445.9468","1.211533"
"2.46","451.6602","1.226833"
"2.49","457.2344","1.2417"
"2.52","462.7069","1.256433"
"2.55","467.8655","1.2713"
"2.58","472.9629","1.286633"
"2.61","478.1349","1.301933"
"2.64","483.3221","1.316767"
"2.67","488.2908","1.331567"
"2.7","493.0059","1.3465"
"2.73","497.574","1.3615"
"2.76","502.0841","1.3766"
"2.79","506.4988","1.391733"
"2.82","510.6076","1.4068"
"2.85","514.4493","1.4215"
"2.88","517.7855","1.436367"
"2.91","520.9366","1.451567"
"2.94","523.7635","1.466767"
"2.97","526.3885","1.482"
"3","528.5089","1.4967"
"3.03","530.0983","1.511533"
"3.06","531.3635","1.526433"
"3.09","532.6271","1.5417"
"3.12","533.9797","1.556867"
"3.15","535.2354","1.571667"
"3.18","536.1382","1.5864"
"3.21","536.8224","1.601333"
"3.24","537.4646","1.6165"
"3.27","538.1465","1.6317"
"3.3","538.8403","1.646867"
"3.33","539.3656","1.6617"
"3.36","539.6851","1.6767"
"3.39","539.8075","1.691367"
"3.42","539.7606","1.706633"
"3.45","539.5921","1.721833"
"3.48","538.8983","1.736733"
"3.51","537.3414","1.751433"
"3.54","534.838","1.766367"
"3.57","531.7759","1.781567"
"3.6","528.4198","1.796733"
"3.63","524.9198","1.8117"
"3.66","521.1027","1.8266"
"3.69","516.9789","1.8414"
"3.72","512.6699","1.856367"
"3.75","508.345","1.871733"
"3.78","504.2108","1.886833"
"3.81","499.986","1.9019"
"3.84","495.4314","1.916467"
"3.87","490.4985","1.931533"
"3.9","485.5832","1.946367"
"3.93","480.667","1.961633"
"3.96","475.7261","1.976933"
"3.99","470.5858","1.991767"
"4.02","465.1101","2.006467"
"4.05","459.1711","2.0214"
"4.08","453.2862","2.036667"
"4.11","447.7127","2.052"
"4.14","442.4214","2.0668"
"4.17","437.2676","2.0816"
"4.2","432.361","2.096567"
"4.23","427.7301","2.111467"
"4.26","423.5887","2.126633"
"4.29","419.8146","2.1418"
"4.32","416.2177","2.156767"
"4.35","412.9052","2.1715"
"4.38","409.7835","2.186233"
"4.41","407.06","2.201533"
"4.44","404.7116","2.216767"
"4.47","402.8479","2.2319"
"4.5","401.0002","2.2466"
"4.53","399.0428","2.261533"
"4.56","397.0146","2.276433"
"4.59","395.0214","2.291767"
"4.62","393.0529","2.306867"
"4.65","391.0971","2.321667"
"4.68","388.9235","2.3364"
"4.71","386.5743","2.351433"
"4.74","384.1599","2.366567"
"4.77","381.1105","2.381667"
"4.8","377.4357","2.3969"
"4.83","373.253","2.4117"
"4.86","368.7652","2.4266"
"4.89","364.1168","2.4413"
"4.92","359.1553","2.456533"
"4.95","354.1541","2.471733"
"4.98","349.3953","2.486767"
"5.01","344.6388","2.5015"
"5.04","338.9048","2.5164"
"5.07","332.5343","2.531567"
"5.1","326.1288","2.5468"
"5.13","319.953","2.561733"
"5.16","313.8113","2.576733"
"5.19","307.9041","2.591533"
"5.22","302.399","2.6065"
"5.25","297.2945","2.6217"
"5.28","292.6389","2.636733"
"5.31","288.3879","2.6519"
"5.34","284.4246","2.666567"
"5.37","280.1577","2.6814"
"5.4","275.1613","2.696367"
"5.43","270.5797","2.7116"
"5.46","266.242","2.726833"
"5.49","261.6024","2.741767"
"5.52","257.1527","2.7565"
"5.55","252.7944","2.7714"
"5.58","248.4178","2.786733"
"5.61","243.7631","2.801833"
"5.64","238.4321","2.816767"
"5.67","232.7935","2.8315"
"5.7","227.7652","2.8465"
"5.73","223.5373","2.861433"
"5.76","219.4675","2.876667"
"5.79","213.3846","2.891767"
"5.82","205.0654","2.906733"
"5.85","196.7764","2.9215"
"5.88","185.1988","2.9364"
"5.91","175.1693","2.951567"
"5.94","167.2522","2.9668"
"5.97","161.7996","2.981933"
"6","157.7059","2.9966"
"6.03","154.4134","3.011467"
"6.06","150.9897","3.026467"
"6.09","147.2839","3.0417"
"6.12","142.7738","3.0568"
"6.15","139.37","3.071667"
"6.18","136.6615","3.086333"
"6.21","133.6153","3.101333"
"6.24","128.1413","3.116533"
"6.27","116.7711","3.131733"
"6.3","108.2174","3.146933"
"6.33","103.8671","3.1618"
"6.36","100.3273","3.176633"
"6.39","97.09914","3.191433"
"6.42","94.1054","3.2066"
"6.45","92.02003","3.221833"
"6.48","90.16275","3.236833"
"6.51","88.28004","3.251467"
"6.54","86.47363","3.266367"
"6.57","84.8484","3.281567"
"6.6","82.9196","3.296733"
"6.63","81.01225","3.3118"
"6.66","79.28213","3.3266"
"6.69","77.76181","3.341467"
"6.72","75.86241","3.356433"
"6.75","73.81121","3.371633"
"6.78","71.47868","3.386833"
"6.81","68.51594","3.4019"
"6.84","60.58455","3.416567"
"6.87","34.36009","3.431433"
"6.9","30.67175","3.446467"
"6.93","30.66858","3.461567"
"6.96","30.73295","3.4769"
"6.99","30.71705","3.491667"
"7.02","30.65507","3.5065"
"7.05","30.66619","3.521367"
"7.08","30.68844","3.5367"
"7.11","30.66063","3.551867"
"7.14","30.62963","3.566767"
"7.17","30.62169","3.581567"
"7.2","30.63281","3.596533"
"7.23","30.6344","3.611533"
"7.26","30.62089","3.626567"
"7.29","30.63838","3.641733"
"7.32","30.67017","3.6567"
"7.35","30.66063","3.671433"
"7.38","30.65666","3.686367"
"7.41","30.66619","3.701533"
"7.44","30.69003","3.716733"
"7.47","30.68527","3.731867"
"7.5","30.65268","3.746667"
"7.53","30.64791","3.761533"
"7.56","30.67017","3.7765"
"7.59","30.66301","3.791733"
"7.62","30.65507","3.806767"
"7.65","30.62169","3.821733"
"7.68","30.64156","3.836433"
"7.71","30.65745","3.8514"
"7.74","30.66381","3.866533"
"7.77","30.67414","3.881667"
"7.8","30.65904","3.8969"
"7.83","30.67414","3.9117"
"7.86","30.66858","3.9266"
"7.89","30.69719","3.9414"
"7.92","30.68288","3.9566"
"7.95","30.66142","3.971833"
"7.98","30.66619","3.986733"
"8.01","30.65745","4.0015"
"8.04","30.65268","4.016366"
"8.07","30.65268","4.031567"
"8.1","30.64394","4.046767"
"8.13","30.65189","4.061733"
"8.16","30.67652","4.076667"
"8.19","30.67255","4.091467"
"8.22","30.68844","4.106433"
"8.25","30.67493","4.121667"
"8.28","30.66063","4.136833"
"8.31","30.68368","4.147567"