File: degradation_testing/tensile_testing/Resin/Resin_Acetone/Resin_A_4.csv
"1 _ 1",,
"Time","Force","Stroke"
"sec","N","mm"
"0","0.4895528","6.666667E-05"
"0.03","0.5801519","0.0109"
"0.06","3.351371","0.0261"
"0.09","14.0206","0.04116667"
"0.12","26.98501","0.0564"
"0.15","39.5147","0.0717"
"0.18","50.94687","0.0867"
"0.21","57.63451","0.1014333"
"0.24","58.11374","0.1163333"
"0.27","57.9826","0.1315667"
"0.3","57.67663","0.1467667"
"0.33","57.73942","0.1617667"
"0.36","58.074","0.1767333"
"0.39","58.15188","0.1915333"
"0.42","58.20751","0.2065333"
"0.45","58.21864","0.2217333"
"0.48","58.24487","0.2367667"
"0.51","58.26314","0.2519"
"0.54","58.24487","0.2665333"
"0.57","58.22341","0.2814"
"0.6","58.18685","0.2964"
"0.63","58.21466","0.3116"
"0.66","58.22102","0.3268667"
"0.69","58.22499","0.3417333"
"0.72","58.28142","0.3565333"
"0.75","58.33387","0.3714333"
"0.78","58.36089","0.3867"
"0.81","58.40619","0.4019333"
"0.84","58.45467","0.4167333"
"0.87","58.46183","0.4314667"
"0.9","58.53891","0.4464667"
"0.93","59.67696","0.4614667"
"0.96","65.13358","0.4766"
"0.99","69.55226","0.4918"
"1.02","73.6618","0.5068"
"1.05","81.44379","0.5215"
"1.08","92.60257","0.5363333"
"1.11","105.5439","0.5515333"
"1.14","118.1904","0.5667334"
"1.17","130.0311","0.5819"
"1.2","142.5139","0.5966"
"1.23","153.8626","0.6114666"
"1.26","165.3838","0.6263334"
"1.29","176.9527","0.6416"
"1.32","188.7902","0.6567"
"1.35","200.3169","0.6716334"
"1.38","211.3231","0.6863334"
"1.41","221.8501","0.7014"
"1.44","232.5749","0.7165334"
"1.47","243.4349","0.7317333"
"1.5","253.8975","0.7469333"
"1.53","263.7649","0.7617667"
"1.56","273.0648","0.7766333"
"1.59","282.0206","0.7914"
"1.62","290.7109","0.8066"
"1.65","299.0103","0.8218334"
"1.68","306.658","0.8368"
"1.71","313.8669","0.8514333"
"1.74","320.1326","0.8664"
"1.77","325.551","0.8815333"
"1.8","330.7549","0.8968"
"1.83","336.2465","0.9117666"
"1.86","341.1039","0.9266334"
"1.89","345.0099","0.9415333"
"1.92","348.0856","0.9564334"
"1.95","350.8751","0.9717"
"1.98","353.5398","0.9868"
"2.01","355.9653","1.0019"
"2.04","358.1381","1.016567"
"2.07","359.8889","1.031433"
"2.1","361.6293","1.0464"
"2.13","363.3904","1.061567"
"2.16","365.2231","1.076933"
"2.19","367.0446","1.0917"
"2.22","368.4608","1.106467"
"2.25","369.4439","1.1214"
"2.28","370.5804","1.136667"
"2.31","371.7216","1.151933"
"2.34","372.8382","1.1668"
"2.37","373.7418","1.181433"
"2.4","374.5381","1.196433"
"2.43","375.1882","1.211433"
"2.46","375.9996","1.2266"
"2.49","377.3602","1.241767"
"2.52","378.9433","1.256733"
"2.55","380.675","1.271467"
"2.58","382.5839","1.2863"
"2.61","384.9673","1.301533"
"2.64","388.0898","1.316733"
"2.67","391.3109","1.3319"
"2.7","394.4612","1.346667"
"2.73","397.4668","1.361567"
"2.76","400.2444","1.3765"
"2.79","403.1451","1.391733"
"2.82","406.2637","1.406733"
"2.85","409.4633","1.4217"
"2.88","412.6104","1.436467"
"2.91","415.7567","1.4514"
"2.94","419.0032","1.4666"
"2.97","422.4936","1.4817"
"3","426.2678","1.496867"
"3.03","430.0308","1.5117"
"3.06","433.6532","1.526567"
"3.09","437.2072","1.541367"
"3.12","440.9393","1.556567"
"3.15","444.9232","1.571867"
"3.18","449.0789","1.5868"
"3.21","453.244","1.601467"
"3.24","457.1581","1.6163"
"3.27","460.9418","1.631533"
"3.3","464.8201","1.646833"
"3.33","468.9161","1.661733"
"3.36","472.8667","1.676667"
"3.39","476.6186","1.6915"
"3.42","480.326","1.7064"
"3.45","484.1542","1.721633"
"3.48","488.0532","1.7368"
"3.51","492.0284","1.751867"
"3.54","495.9154","1.766533"
"3.57","499.5855","1.7813"
"3.6","503.2054","1.796433"
"3.63","506.9471","1.8115"
"3.66","510.815","1.826833"
"3.69","514.578","1.841733"
"3.72","518.2449","1.856467"
"3.75","521.6956","1.871367"
"3.78","525.2338","1.886733"
"3.81","528.9618","1.901767"
"3.84","532.8719","1.916767"
"3.87","536.9727","1.931567"
"3.9","541.2062","1.946467"
"3.93","545.1465","1.9615"
"3.96","548.9612","1.9766"
"3.99","552.9626","1.991833"
"4.02","556.9291","2.006833"
"4.05","560.8169","2.0215"
"4.08","564.3153","2.036367"
"4.11","568.0919","2.0516"
"4.14","572.0226","2.0668"
"4.17","576.187","2.081967"
"4.2","580.2441","2.096533"
"4.23","584.1136","2.111533"
"4.26","587.8639","2.126467"
"4.29","591.6476","2.141667"
"4.32","595.6578","2.1566"
"4.35","599.7038","2.171733"
"4.38","603.7188","2.1864"
"4.41","607.601","2.201433"
"4.44","611.4332","2.216567"
"4.47","615.4052","2.2318"
"4.5","619.5386","2.2469"
"4.53","623.804","2.261833"
"4.56","627.989","2.276467"
"4.59","631.8275","2.291367"
"4.62","635.581","2.306567"
"4.65","639.6238","2.3218"
"4.68","643.657","2.336767"
"4.71","647.6688","2.351367"
"4.74","651.3929","2.366267"
"4.77","655.1536","2.381467"
"4.8","659.0637","2.396867"
"4.83","663.1931","2.411667"
"4.86","667.096","2.426667"
"4.89","670.8987","2.4415"
"4.92","674.4798","2.456433"
"4.95","678.0283","2.471667"
"4.98","681.7809","2.486767"
"5.01","685.6068","2.5019"
"5.04","689.35","2.5165"
"5.07","692.8961","2.531433"
"5.1","696.5057","2.546333"
"5.13","700.1893","2.561667"
"5.16","704.2154","2.5769"
"5.19","708.1652","2.591733"
"5.22","711.9481","2.606567"
"5.25","715.522","2.621467"
"5.28","719.0935","2.636733"
"5.31","722.7039","2.6519"
"5.34","726.4002","2.666733"
"5.37","729.839","2.681467"
"5.4","733.304","2.6965"
"5.43","736.6506","2.711433"
"5.46","740.041","2.7266"
"5.49","743.6244","2.741767"
"5.52","747.1085","2.756767"
"5.55","750.5258","2.771533"
"5.58","753.634","2.7862"
"5.61","756.7883","2.801567"
"5.64","760.165","2.816767"
"5.67","763.6317","2.831967"
"5.7","766.983","2.8466"
"5.73","769.9521","2.861533"
"5.76","772.6924","2.876467"
"5.79","775.4707","2.8917"
"5.82","778.4597","2.906767"
"5.85","781.3581","2.9216"
"5.88","784.0379","2.9364"
"5.91","786.5755","2.9513"
"5.94","789.0399","2.966533"
"5.97","791.618","2.981633"
"6","794.3105","2.996833"
"6.03","796.8458","3.0117"
"6.06","792.3976","3.027533"
"6.09","359.8658","3.0417"
"6.12","26.54552","3.056667"
"6.15","23.66304","3.071833"
"6.18","22.67838","3.0868"
"6.21","22.47334","3.101467"
"6.24","22.06008","3.116367"
"6.27","21.9806","3.131567"
"6.3","22.15783","3.146833"
"6.33","22.1316","3.161767"
"6.36","21.90669","3.176667"
"6.39","21.88047","3.191533"
"6.42","22.03862","3.206533"
"6.45","21.98855","3.2216"
"6.48","21.8304","3.236867"
"6.51","21.89716","3.251867"
"6.54","21.97504","3.2666"
"6.57","21.93054","3.281333"
"6.6","21.86219","3.296433"
"6.63","21.88841","3.311567"
"6.66","21.95358","3.3269"
"6.69","21.9361","3.3417"
"6.72","21.87093","3.356467"
"6.75","21.91146","3.3714"
"6.78","21.95835","3.3867"
"6.81","21.89477","3.401833"
"6.84","21.86616","3.416767"
"6.87","21.88921","3.431533"
"6.9","21.9059","3.4465"
"6.93","21.87252","3.461467"
"6.96","21.85901","3.4766"
"6.99","21.87332","3.491867"
"7.02","21.90193","3.506767"
"7.05","21.89795","3.5215"
"7.08","21.8908","3.536333"
"7.11","21.88444","3.5516"
"7.14","21.90828","3.566733"
"7.17","21.91067","3.581867"
"7.2","21.89716","3.596567"
"7.23","21.89557","3.611433"
"7.26","21.90431","3.625433"
"7.27","21.8908","3.6267"