File: degradation_testing/tensile_testing/Resin/Resin_Acetone/Resin_A_3.csv
"1 _ 1",,
"Time","Force","Stroke"
"sec","N","mm"
"0","0.4959106","0.0001"
"0.03","0.5865097","0.0108"
"0.06","3.681183","0.02596667"
"0.09","15.58622","0.0412"
"0.12","29.61954","0.05663333"
"0.15","42.7707","0.07176667"
"0.18","53.52179","0.0868"
"0.21","55.782","0.1015"
"0.24","55.7812","0.1165333"
"0.27","55.74147","0.1315"
"0.3","55.81061","0.1466333"
"0.33","55.813","0.1618333"
"0.36","55.82015","0.1767667"
"0.39","55.86465","0.1915333"
"0.42","55.88611","0.2062667"
"0.45","55.89326","0.2215667"
"0.48","55.91552","0.2367333"
"0.51","55.90916","0.2519333"
"0.54","55.9028","0.2667"
"0.57","55.86227","0.2815333"
"0.6","55.84717","0.2965"
"0.63","55.86147","0.3117333"
"0.66","55.93141","0.3268"
"0.69","55.96002","0.3416667"
"0.72","55.97989","0.3564333"
"0.75","56.00532","0.3713667"
"0.78","56.02757","0.3866333"
"0.81","56.05539","0.4017333"
"0.84","56.05857","0.4169333"
"0.87","56.08559","0.4316667"
"0.9","56.15234","0.4466"
"0.93","57.07423","0.4613333"
"0.96","64.46997","0.4766333"
"0.99","72.7121","0.4918333"
"1.02","80.91768","0.5067667"
"1.05","94.3327","0.5214334"
"1.08","107.1326","0.5363333"
"1.11","119.7735","0.5514"
"1.14","132.8071","0.5667"
"1.17","146.2722","0.5817333"
"1.2","159.4257","0.5966333"
"1.23","172.65","0.6114666"
"1.26","185.3355","0.6264667"
"1.29","198.2633","0.6416"
"1.32","211.0171","0.6567333"
"1.35","223.7693","0.6719"
"1.38","236.0908","0.6866"
"1.41","247.9156","0.7013667"
"1.44","259.3644","0.7164"
"1.47","270.6846","0.7316"
"1.5","282.1819","0.7468667"
"1.53","293.3367","0.7617"
"1.56","304.0322","0.7765"
"1.59","314.0275","0.7914333"
"1.62","323.7708","0.8067334"
"1.65","333.3434","0.8219"
"1.68","342.6226","0.8367"
"1.71","351.1317","0.8515667"
"1.74","358.7675","0.8664667"
"1.77","365.4083","0.8815"
"1.8","371.2892","0.8966333"
"1.83","377.2012","0.9118"
"1.86","382.634","0.9267667"
"1.89","387.6527","0.9415"
"1.92","392.1501","0.9563"
"1.95","396.537","0.9715"
"1.98","400.7459","0.9867"
"2.01","404.8149","1.002"
"2.04","408.4198","1.0165"
"2.07","411.2132","1.031567"
"2.1","413.5712","1.0465"
"2.13","415.6033","1.061733"
"2.16","417.1053","1.076767"
"2.19","418.0614","1.091633"
"2.22","418.3451","1.1064"
"2.25","418.7099","1.121433"
"2.28","419.5754","1.136567"
"2.31","420.9137","1.1517"
"2.34","423.2295","1.166867"
"2.37","426.232","1.181633"
"2.4","429.2425","1.196467"
"2.43","432.5143","1.211333"
"2.46","436.4649","1.2266"
"2.49","441.0036","1.2418"
"2.52","445.7021","1.256733"
"2.55","450.3989","1.271467"
"2.58","454.824","1.286367"
"2.61","459.0686","1.301567"
"2.64","463.2696","1.316767"
"2.67","467.4983","1.3318"
"2.7","471.801","1.346733"
"2.73","475.9089","1.361533"
"2.76","479.7395","1.376467"
"2.79","483.7251","1.391667"
"2.82","487.9745","1.4067"
"2.85","492.2636","1.421833"
"2.88","496.4153","1.4365"
"2.91","500.3119","1.451467"
"2.94","504.3181","1.4664"
"2.97","508.3378","1.481633"
"3","512.5006","1.4969"
"3.03","516.4957","1.5117"
"3.06","520.0751","1.526467"
"3.09","523.0697","1.541433"
"3.12","525.8513","1.556733"
"3.15","528.4707","1.5719"
"3.18","530.9105","1.586767"
"3.21","532.9585","1.601533"
"3.24","534.811","1.616433"
"3.27","536.627","1.631433"
"3.3","538.7203","1.646533"
"3.33","541.3445","1.661767"
"3.36","544.3287","1.676733"
"3.39","547.5974","1.6915"
"3.42","550.8836","1.7063"
"3.45","554.4233","1.721533"
"3.48","558.2698","1.736667"
"3.51","562.2347","1.751867"
"3.54","566.3602","1.7666"
"3.57","570.3727","1.781533"
"3.6","574.2471","1.7964"
"3.63","578.3002","1.811733"
"3.66","582.6402","1.8266"
"3.69","586.9841","1.841667"
"3.72","591.2487","1.8564"
"3.75","595.4401","1.871433"
"3.78","599.7372","1.8866"
"3.81","604.0867","1.901667"
"3.84","608.5165","1.916967"
"3.87","612.8391","1.931733"
"3.9","616.8866","1.9466"
"3.93","620.6465","1.9613"
"3.96","624.5112","1.9767"
"3.99","628.5548","1.991833"
"4.02","632.623","2.006867"
"4.05","636.6293","2.0214"
"4.08","640.2628","2.0363"
"4.11","643.9034","2.051533"
"4.14","647.6514","2.066867"
"4.17","651.6147","2.0816"
"4.2","655.3968","2.096667"
"4.23","659.1908","2.111533"
"4.26","662.9157","2.126533"
"4.29","666.7868","2.141667"
"4.32","670.7159","2.1568"
"4.35","674.5227","2.1719"
"4.38","678.1157","2.1866"
"4.41","681.4067","2.201267"
"4.44","684.5808","2.216367"
"4.47","687.9202","2.231567"
"4.5","691.3781","2.246833"
"4.53","694.8209","2.261633"
"4.56","698.0268","2.276467"
"4.59","700.7686","2.2914"
"4.62","703.7719","2.306767"
"4.65","707.051","2.321767"
"4.68","710.3571","2.336733"
"4.71","713.3826","2.3515"
"4.74","716.3318","2.3664"
"4.77","719.1857","2.3814"
"4.8","722.2088","2.3966"
"4.83","725.5435","2.4118"
"4.86","728.9227","2.426767"
"4.89","732.1691","2.4415"
"4.92","735.1987","2.456333"
"4.95","738.3712","2.4715"
"4.98","741.5565","2.486767"
"5.01","744.9643","2.502033"
"5.04","748.229","2.5166"
"5.07","751.2275","2.531567"
"5.1","754.0377","2.5465"
"5.13","756.8788","2.561767"
"5.16","759.7422","2.576667"
"5.19","762.5405","2.591633"
"5.22","765.0995","2.606433"
"5.25","767.6299","2.6214"
"5.28","770.158","2.636533"
"5.31","772.6812","2.651667"
"5.34","775.2649","2.666833"
"5.37","777.7087","2.6818"
"5.4","780.1096","2.696567"
"5.43","782.3229","2.7113"
"5.46","784.4861","2.726633"
"5.49","786.9244","2.741867"
"5.52","789.3109","2.756833"
"5.55","791.5513","2.771467"
"5.58","793.3744","2.786333"
"5.61","795.0417","2.801533"
"5.64","796.8275","2.816767"
"5.67","798.866","2.8317"
"5.7","800.7534","2.8466"
"5.73","802.455","2.861433"
"5.76","803.8362","2.8764"
"5.79","805.1499","2.891633"
"5.82","806.5343","2.906667"
"5.85","807.9124","2.9218"
"5.88","809.1076","2.936533"
"5.91","809.9962","2.951533"
"5.94","810.8687","2.966267"
"5.97","811.6126","2.9816"
"6","812.4693","2.9969"
"6.03","813.2386","3.0117"
"6.06","813.7043","3.026533"
"6.09","813.822","3.041433"
"6.12","813.9944","3.056767"
"6.15","814.2551","3.071867"
"6.18","814.5507","3.0867"
"6.21","814.4792","3.101533"
"6.24","814.3687","3.116533"
"6.27","814.1501","3.131433"
"6.3","813.9761","3.146667"
"6.33","813.8243","3.161833"
"6.36","813.5057","3.176833"
"6.39","812.9549","3.191633"
"6.42","812.1975","3.206267"
"6.45","811.3527","3.221533"
"6.48","810.5421","3.236767"
"6.51","809.9191","3.251967"
"6.54","809.2276","3.2666"
"6.57","808.1953","3.281533"
"6.6","806.4405","3.297167"
"6.63","525.4221","3.312033"
"6.66","33.56377","3.326833"
"6.69","21.13104","3.3417"
"6.72","20.94587","3.356367"
"6.75","20.03431","3.3714"
"6.78","19.68543","3.386633"
"6.81","19.83961","3.4017"
"6.84","19.94213","3.416933"
"6.87","19.73311","3.4317"
"6.9","19.57893","3.446567"
"6.93","19.73549","3.461333"
"6.96","19.77046","3.4766"
"6.99","19.57655","3.491767"
"7.02","19.56383","3.506767"
"7.05","19.67669","3.5214"
"7.08","19.64569","3.536267"
"7.11","19.51933","3.551467"
"7.14","19.50582","3.566767"
"7.17","19.57019","3.581767"
"7.2","19.60993","3.5967"
"7.23","19.54953","3.611533"
"7.26","19.54953","3.6265"
"7.29","19.5996","3.641667"
"7.32","19.61867","3.656833"
"7.35","19.57655","3.6719"
"7.38","19.57417","3.686567"
"7.41","19.61946","3.701367"
"7.44","19.61231","3.716433"
"7.47","19.57893","3.731567"
"7.5","19.5686","3.7468"
"7.53","19.57496","3.761767"
"7.56","19.5686","3.7765"
"7.59","19.54079","3.7914"
"7.62","19.55509","3.8067"
"7.65","19.5837","3.821867"
"7.68","19.57973","3.8368"
"7.71","19.59085","3.851567"
"7.73","19.60993","3.857333"