File: degradation_testing/tensile_testing/Resin/Resin_Acetone/Resin_A_2a.csv
"1 _ 1",,
"Time","Force","Stroke"
"sec","N","mm"
"0","4.064242","0.0001"
"0.03","4.158815","0.01083333"
"0.06","7.430712","0.02616667"
"0.09","19.32224","0.04123333"
"0.12","33.16959","0.0562"
"0.15","46.15386","0.07153334"
"0.18","53.87862","0.08673333"
"0.21","54.02088","0.1018333"
"0.24","52.85899","0.1165667"
"0.27","53.44312","0.1314333"
"0.3","54.44447","0.1464333"
"0.33","54.53189","0.1616333"
"0.36","54.54302","0.1767667"
"0.39","54.5764","0.1917"
"0.42","54.58514","0.2064"
"0.45","54.58752","0.2213333"
"0.48","54.54938","0.2366333"
"0.51","54.53984","0.2517333"
"0.54","54.59785","0.2669667"
"0.57","54.64315","0.2817"
"0.6","54.69163","0.2966"
"0.63","54.74567","0.3114333"
"0.66","54.73614","0.3266333"
"0.69","54.73693","0.3418333"
"0.72","54.78144","0.3568"
"0.75","54.80925","0.3714667"
"0.78","54.83866","0.3863333"
"0.81","55.02224","0.4016"
"0.84","55.85988","0.4168667"
"0.87","56.04029","0.4318"
"0.9","57.95479","0.4466333"
"0.93","59.53789","0.4614667"
"0.96","63.73405","0.4764333"
"0.99","73.28669","0.4916333"
"1.02","86.23759","0.5067667"
"1.05","99.4436","0.5218667"
"1.08","112.2498","0.5364667"
"1.11","124.8344","0.5513"
"1.14","137.3347","0.5664333"
"1.17","149.7006","0.5816"
"1.2","162.0936","0.5968333"
"1.23","174.3627","0.6117667"
"1.26","186.4743","0.6264667"
"1.29","198.0805","0.6413333"
"1.32","209.5175","0.6566"
"1.35","221.0561","0.6717667"
"1.38","232.5805","0.6867667"
"1.41","243.7758","0.7014334"
"1.44","254.5126","0.7162667"
"1.47","264.7972","0.7314"
"1.5","275.0277","0.7466667"
"1.53","285.325","0.7618334"
"1.56","294.9341","0.7767667"
"1.59","303.9694","0.7915334"
"1.62","312.2282","0.8064"
"1.65","319.9935","0.8216667"
"1.68","327.5466","0.8367667"
"1.71","334.9145","0.8519"
"1.74","341.421","0.8666334"
"1.77","347.0159","0.8814"
"1.8","351.9925","0.8964"
"1.83","356.7449","0.9116667"
"1.86","361.3933","0.9267333"
"1.89","365.6578","0.9416667"
"1.92","369.4121","0.9564334"
"1.95","373.0043","0.9714333"
"1.98","376.5615","0.9866334"
"2.01","380.0106","1.001733"
"2.04","383.4224","1.016967"
"2.07","386.7435","1.031733"
"2.1","389.9185","1.0466"
"2.13","392.8296","1.061367"
"2.16","395.6612","1.076567"
"2.19","398.4769","1.0918"
"2.22","400.6481","1.1067"
"2.25","402.1931","1.1214"
"2.28","402.5292","1.136333"
"2.31","401.5938","1.1516"
"2.34","399.6031","1.1668"
"2.37","397.8054","1.181767"
"2.4","397.4819","1.196533"
"2.43","398.0327","1.211467"
"2.46","399.0491","1.226467"
"2.49","400.5877","1.241667"
"2.52","402.4092","1.256767"
"2.55","403.9391","1.271767"
"2.58","405.3696","1.286467"
"2.61","407.3445","1.301433"
"2.64","409.8709","1.3163"
"2.67","412.6914","1.331567"
"2.7","416.0436","1.3469"
"2.73","419.4776","1.3617"
"2.76","422.8369","1.3765"
"2.79","426.023","1.391467"
"2.82","429.2242","1.4067"
"2.85","432.5755","1.421933"
"2.88","436.1574","1.436767"
"2.91","439.6685","1.4515"
"2.94","443.0954","1.466433"
"2.97","446.4968","1.4815"
"3","449.9857","1.496633"
"3.03","453.5325","1.5118"
"3.06","456.8545","1.5268"
"3.09","460.0207","1.541533"
"3.12","462.8499","1.556267"
"3.15","465.7594","1.571567"
"3.18","468.7579","1.586833"
"3.21","471.8812","1.601967"
"3.24","474.8503","1.616533"
"3.27","477.3807","1.6315"
"3.3","479.788","1.646433"
"3.33","482.324","1.6617"
"3.36","485.1635","1.676833"
"3.39","488.0802","1.691567"
"3.42","490.8133","1.706333"
"3.45","493.5177","1.721333"
"3.48","496.4821","1.7366"
"3.51","499.6681","1.7517"
"3.54","502.9702","1.7669"
"3.57","506.2461","1.781633"
"3.6","509.4489","1.796667"
"3.63","512.5173","1.8113"
"3.66","515.7463","1.826567"
"3.69","519.007","1.8418"
"3.72","522.3647","1.856733"
"3.75","525.6049","1.8714"
"3.78","528.6718","1.886333"
"3.81","532.0159","1.901533"
"3.84","535.5525","1.916833"
"3.87","539.364","1.931733"
"3.9","543.2542","1.9466"
"3.93","547.053","1.961467"
"3.96","550.8002","1.976467"
"3.99","554.7929","1.991667"
"4.02","558.9803","2.0068"
"4.05","563.2408","2.0219"
"4.08","567.3671","2.036567"
"4.11","571.3065","2.0513"
"4.14","575.2524","2.0664"
"4.17","579.3993","2.081567"
"4.2","583.9022","2.096933"
"4.23","588.4568","2.1117"
"4.26","592.7984","2.1265"
"4.29","596.7252","2.1414"
"4.32","600.7584","2.156767"
"4.35","604.9347","2.171833"
"4.38","609.1905","2.186733"
"4.41","613.2674","2.201467"
"4.44","617.1711","2.2164"
"4.47","620.9874","2.2315"
"4.5","624.9253","2.246667"
"4.53","628.9474","2.2618"
"4.56","632.9083","2.276767"
"4.59","636.7858","2.291567"
"4.62","640.428","2.306367"
"4.65","644.2277","2.3215"
"4.68","648.0726","2.336767"
"4.71","652.318","2.352067"
"4.74","656.6827","2.366433"
"4.77","660.6213","2.3814"
"4.8","664.2516","2.396433"
"4.83","668.0814","2.4117"
"4.86","672.063","2.426733"
"4.89","675.9262","2.441633"
"4.92","679.5899","2.4564"
"4.95","683.0645","2.471467"
"4.98","686.5645","2.486533"
"5.01","690.1606","2.501767"
"5.04","693.8124","2.516933"
"5.07","697.4888","2.531633"
"5.1","700.953","2.546533"
"5.13","704.3981","2.5613"
"5.16","707.891","2.576533"
"5.19","711.6119","2.591833"
"5.22","715.3599","2.606733"
"5.25","718.987","2.621433"
"5.28","722.3193","2.636333"
"5.31","725.5769","2.651633"
"5.34","728.8965","2.666833"
"5.37","732.3027","2.6818"
"5.4","735.5333","2.696633"
"5.43","738.67","2.711567"
"5.46","741.6264","2.726467"
"5.49","744.6512","2.741733"
"5.52","747.8198","2.756667"
"5.55","750.8731","2.771833"
"5.58","753.9169","2.786467"
"5.61","756.7318","2.801367"
"5.64","759.5698","2.816333"
"5.67","762.4149","2.831667"
"5.7","765.4985","2.8469"
"5.73","768.4231","2.861767"
"5.76","771.0679","2.8765"
"5.79","773.449","2.8914"
"5.82","775.845","2.9067"
"5.85","778.4192","2.921833"
"5.88","780.9973","2.936767"
"5.91","783.3624","2.951467"
"5.94","785.5495","2.966367"
"5.97","787.6761","2.981433"
"6","789.8784","2.9966"
"6.03","792.1298","3.0118"
"6.06","794.2645","3.026733"
"6.09","796.233","3.0415"
"6.12","797.9425","3.0563"
"6.15","799.6098","3.0715"
"6.18","801.3312","3.086733"
"6.21","802.9341","3.1019"
"6.24","804.5085","3.116567"
"6.27","805.7229","3.131433"
"6.3","806.7354","3.146433"
"6.33","807.7542","3.161833"
"6.36","808.9288","3.176633"
"6.39","809.9437","3.191667"
"6.42","810.7813","3.2064"
"6.45","811.4258","3.2214"
"6.48","812.0012","3.236633"
"6.51","812.6513","3.251767"
"6.54","813.2887","3.266967"
"6.57","813.7592","3.2817"
"6.6","693.6519","3.297167"
"6.63","81.83638","3.311533"
"6.66","21.11991","3.326633"
"6.69","19.77126","3.341833"
"6.72","18.4838","3.356767"
"6.75","18.54897","3.371367"
"6.78","18.7389","3.386333"
"6.81","18.54897","3.401533"
"6.84","18.30101","3.4168"
"6.87","18.39479","3.4318"
"6.9","18.55294","3.4467"
"6.93","18.35108","3.461533"
"6.96","18.22551","3.476433"
"6.99","18.3773","3.4917"
"7.02","18.38128","3.5068"
"7.05","18.25094","3.521867"
"7.08","18.23902","3.5366"
"7.11","18.32565","3.551233"
"7.14","18.35505","3.566433"
"7.17","18.30419","3.5816"
"7.2","18.25968","3.596867"
"7.23","18.32406","3.6117"
"7.26","18.3622","3.6264"
"7.29","18.29783","3.641433"
"7.32","18.27876","3.6567"
"7.35","18.29306","3.6718"
"7.38","18.29465","3.686833"
"7.41","18.26763","3.7015"
"7.44","18.25492","3.716333"
"7.47","18.28114","3.731467"
"7.5","18.26445","3.7466"
"7.53","18.26843","3.761833"
"7.56","18.26763","3.776767"
"7.59","18.29783","3.791533"
"7.62","18.32565","3.806333"
"7.65","18.30816","3.821633"
"7.68","18.31293","3.8368"
"7.71","18.30578","3.8519"
"7.74","18.31452","3.866667"
"7.77","18.29306","3.881467"
"7.8","18.28194","3.8965"
"7.83","18.29942","3.911667"
"7.86","18.29704","3.926733"
"7.89","18.27955","3.9417"
"7.92","18.27717","3.9564"
"7.95","18.28432","3.971333"
"7.98","18.29545","3.9865"
"8.01","18.30657","4.001767"
"8.04","18.32167","4.0169"
"8.07","18.31293","4.031667"
"8.1","18.31214","4.0465"
"8.13","18.32167","4.061367"
"8.16","18.31293","4.0766"
"8.19","18.3169","4.091866"
"8.22","18.30339","4.1068"
"8.25","18.30101","4.121433"
"8.28","18.27478","4.1363"
"8.31","18.28671","4.151567"
"8.33","18.28591","4.156333"