File: degradation_testing/tensile_testing/Resin/Resin_Acetone/Resin_A_2.csv
"1 _ 1",,
"Time","Force","Stroke"
"sec","N","mm"
"0","0.342528","0.0001"
"0.02","0.3616015","0.0063"
"0.04","0.9083748","0.0165"
"0.06","4.765193","0.02656667"
"0.08","12.4677","0.0368"
"0.1","20.46188","0.04686667"
"0.12","27.77576","0.05663333"
"0.14","35.05707","0.06646667"
"0.16","42.66183","0.0764"
"0.18","50.57414","0.0864"
"0.2","58.40381","0.09666667"
"0.22","64.74177","0.1067667"
"0.24","67.18238","0.1168667"
"0.26","67.36517","0.1268667"
"0.28","67.32146","0.1367"
"0.3","67.32543","0.1464667"
"0.32","67.40173","0.1565667"
"0.34","67.42557","0.1664667"
"0.36","67.43193","0.1765333"
"0.38","67.45736","0.1867333"
"0.4","67.47325","0.1967333"
"0.42","67.46371","0.2068"
"0.44","67.48835","0.2167667"
"0.46","67.49789","0.2266667"
"0.48","67.50663","0.2366667"
"0.5","67.50822","0.2464"
"0.52","67.50425","0.2564"
"0.54","67.48994","0.2667"
"0.56","67.49948","0.2767667"
"0.58","67.48994","0.2869"
"0.6","67.50107","0.2969"
"0.62","67.48438","0.3067333"
"0.64","67.49074","0.3165333"
"0.66","67.50345","0.3265"
"0.68","67.54875","0.3366"
"0.7","67.61074","0.3466667"
"0.72","67.63696","0.3568"
"0.74","67.6473","0.3668"
"0.76","67.66001","0.3768333"
"0.78","67.65604","0.3867667"
"0.8","67.68068","0.3965333"
"0.82","67.67989","0.4066333"
"0.84","67.6624","0.4165334"
"0.86","67.66875","0.4265667"
"0.88","67.69975","0.4367333"
"0.9","67.68465","0.4468667"
"0.92","67.72916","0.4569333"
"0.94","67.84121","0.4668667"
"0.96","68.54216","0.4767333"
"0.98","71.53432","0.4866667"
"1","77.85241","0.4962667"
"1.02","84.13474","0.5064334"
"1.04","88.4668","0.5166667"
"1.06","92.77821","0.5266667"
"1.08","99.49922","0.5368667"
"1.1","108.1212","0.5468"
"1.12","117.0143","0.5566667"
"1.14","125.5369","0.5663667"
"1.16","133.841","0.5763333"
"1.18","141.9687","0.5864334"
"1.2","149.9168","0.5966"
"1.22","157.7226","0.6067333"
"1.24","165.4204","0.6168666"
"1.26","172.7343","0.6268"
"1.28","179.6365","0.6365667"
"1.3","185.9975","0.6463667"
"1.32","191.733","0.6564667"
"1.34","196.9719","0.6664667"
"1.36","201.5519","0.6765667"
"1.38","205.3277","0.6867"
"1.4","208.5614","0.6968"
"1.42","211.2802","0.7069"
"1.44","213.4538","0.7168667"
"1.46","215.2665","0.7266334"
"1.48","216.771","0.7365333"
"1.5","218.0783","0.7464333"
"1.52","219.4579","0.7564"
"1.54","220.9028","0.7666667"
"1.56","222.2403","0.7767333"
"1.58","223.5238","0.7869"
"1.6","224.6833","0.7968667"
"1.62","225.6711","0.8067"
"1.64","226.4198","0.8164667"
"1.66","227.0977","0.8264"
"1.68","227.9258","0.8365"
"1.7","228.8969","0.8466667"
"1.72","229.8983","0.8567667"
"1.74","230.9132","0.8668333"
"1.76","231.9805","0.8768667"
"1.78","233.0438","0.8867"
"1.8","233.9149","0.8965"
"1.82","234.7294","0.9065667"
"1.84","235.4598","0.9165"
"1.86","236.3165","0.9265667"
"1.88","237.3354","0.9366667"
"1.9","238.5799","0.9468667"
"1.92","240.0374","0.9569333"
"1.94","241.7787","0.9668334"
"1.96","243.988","0.9766667"
"1.98","245.4193","0.9866667"
"2","243.1401","0.9963"
"2.02","239.4795","1.006433"
"2.04","236.9603","1.016733"
"2.06","235.8691","1.026733"
"2.08","235.8127","1.036867"
"2.1","236.3435","1.0469"
"2.12","237.3378","1.056733"
"2.14","238.7039","1.066467"
"2.16","240.3116","1.076467"
"2.18","241.9432","1.0865"
"2.2","243.6685","1.096667"
"2.22","245.5846","1.106767"
"2.24","247.7622","1.1169"
"2.26","250.1543","1.126833"
"2.28","252.587","1.136667"
"2.3","254.972","1.146433"
"2.32","257.2751","1.1565"
"2.34","259.459","1.166433"
"2.36","261.5905","1.176467"
"2.38","263.6894","1.186567"
"2.4","265.8248","1.1967"
"2.42","268.0008","1.2068"
"2.44","270.1624","1.216767"
"2.46","272.3193","1.226667"
"2.48","274.504","1.2366"
"2.5","276.6967","1.2464"
"2.52","278.9593","1.2564"
"2.54","281.2521","1.266667"
"2.56","283.5854","1.276733"
"2.58","285.9489","1.2869"
"2.6","288.2036","1.296967"
"2.62","290.4344","1.306733"
"2.64","292.5436","1.316467"
"2.66","294.3873","1.3265"
"2.68","296.0372","1.336533"
"2.7","297.5305","1.3467"
"2.72","299.1096","1.356733"
"2.74","300.9534","1.3669"
"2.76","302.9346","1.376767"
"2.78","304.8627","1.386633"
"2.8","306.5705","1.3964"
"2.82","308.2434","1.406567"
"2.84","309.8877","1.416467"
"2.86","311.5892","1.4265"
"2.88","313.4529","1.436633"
"2.9","315.5526","1.446833"
"2.92","317.715","1.456933"
"2.94","319.7424","1.466867"
"2.96","321.5941","1.4767"
"2.98","323.1732","1.4867"
"3","324.5735","1.496333"
"3.02","326.1352","1.5065"
"3.04","327.8542","1.516667"
"3.06","329.9006","1.526767"
"3.08","332.2236","1.5369"
"3.1","334.58","1.546867"
"3.12","336.9482","1.556733"
"3.14","339.2227","1.566533"
"3.16","341.3383","1.576467"
"3.18","343.3752","1.5865"
"3.2","345.4669","1.5967"
"3.22","347.5889","1.606733"
"3.24","349.7823","1.616867"
"3.26","351.8701","1.626867"
"3.28","353.8625","1.636667"
"3.3","355.8238","1.646467"
"3.32","357.8313","1.656533"
"3.34","359.869","1.666433"
"3.36","362.0315","1.6765"
"3.38","364.2869","1.686733"
"3.4","366.6774","1.696833"
"3.42","369.1498","1.706833"
"3.44","371.5563","1.7168"
"3.46","373.9246","1.7266"
"3.48","376.2269","1.7366"
"3.5","378.2121","1.746433"
"3.52","380.0615","1.7564"
"3.54","381.9545","1.7667"
"3.56","383.8563","1.776767"
"3.58","385.917","1.7869"
"3.6","387.9881","1.7969"
"3.62","390.0989","1.8067"
"3.64","392.2137","1.8164"
"3.66","394.326","1.826367"
"3.68","396.5998","1.836467"
"3.7","399.1206","1.846633"
"3.72","401.7536","1.856733"
"3.74","404.4962","1.8669"
"3.76","407.2444","1.876767"
"3.78","409.9512","1.886667"
"3.8","412.5102","1.896433"
"3.82","415.0359","1.9066"
"3.84","417.4805","1.916533"
"3.86","419.9918","1.926533"
"3.88","422.5493","1.936667"
"3.9","425.2108","1.946767"
"3.92","427.9383","1.956867"
"3.94","430.6888","1.9669"
"3.96","433.4784","1.9767"
"3.98","436.2822","1.986633"
"4","439.0128","1.9963"
"4.02","441.7753","2.006367"
"4.04","444.6205","2.0166"
"4.06","447.6659","2.0267"
"4.08","450.9028","2.036833"
"4.1","454.0594","2.046833"
"4.12","457.054","2.056733"
"4.14","459.7179","2.066467"
"4.16","461.905","2.076433"
"4.18","463.9125","2.086433"
"4.2","466.0781","2.096733"
"4.22","468.4083","2.1068"
"4.24","471.0333","2.116933"
"4.26","473.6463","2.126833"
"4.28","476.0321","2.1367"
"4.3","478.3312","2.1465"
"4.32","480.6852","2.156533"
"4.34","483.1131","2.166433"
"4.36","485.5402","2.1766"
"4.38","487.8696","2.186767"
"4.4","490.1957","2.196833"
"4.42","492.4003","2.206933"
"4.44","494.3728","2.216833"
"4.46","496.2699","2.226667"
"4.48","498.0318","2.2366"
"4.5","499.7102","2.2464"
"4.52","501.5421","2.2563"
"4.54","503.5162","2.2666"
"4.56","505.5849","2.276733"
"4.58","507.919","2.286933"
"4.6","510.331","2.2969"
"4.62","512.7526","2.3067"
"4.64","514.884","2.316467"
"4.66","516.7222","2.326433"
"4.68","518.6359","2.336467"
"4.7","520.6617","2.346733"
"4.72","522.4919","2.3567"
"4.74","523.7563","2.366833"
"4.76","524.5773","2.3767"
"4.78","524.8181","2.3866"
"4.8","524.9953","2.396467"
"4.82","524.9731","2.4066"
"4.84","524.6854","2.416567"
"4.86","524.7434","2.426533"
"4.88","524.594","2.4366"
"4.9","523.3217","2.4468"
"4.92","518.9117","2.4569"
"4.94","509.1405","2.466833"
"4.96","496.9931","2.4767"
"4.98","485.4417","2.4867"
"5","476.4517","2.4906"