File: degradation_testing/tensile_testing/Resin/Resin_Acetone/Resin_A_5.csv
"1 _ 1",,
"Time","Force","Stroke"
"sec","N","mm"
"0","-2.130667","6.666667E-05"
"0.03","-2.001921","0.01153333"
"0.06","2.457301","0.0266"
"0.09","14.99097","0.0417"
"0.12","28.34717","0.05636667"
"0.15","41.09303","0.07126667"
"0.18","53.04177","0.0865"
"0.21","59.57206","0.1017"
"0.24","59.89949","0.1169"
"0.27","60.01155","0.1317333"
"0.3","59.98691","0.1466333"
"0.33","60.10215","0.1614333"
"0.36","60.23169","0.1767667"
"0.39","60.22294","0.1919"
"0.42","60.24043","0.2069333"
"0.45","60.23884","0.2215667"
"0.48","60.26347","0.2364"
"0.51","60.25871","0.2515667"
"0.54","60.24758","0.2667667"
"0.57","60.2603","0.2818334"
"0.6","60.25155","0.2967333"
"0.63","60.30083","0.3115333"
"0.66","60.38984","0.3265333"
"0.69","60.38825","0.3418"
"0.72","60.41845","0.3568333"
"0.75","60.43196","0.3720333"
"0.78","60.45182","0.3867"
"0.81","60.43911","0.4016"
"0.84","60.43434","0.4164333"
"0.87","60.4407","0.4316667"
"0.9","60.52971","0.4468"
"0.93","61.90777","0.4617667"
"0.96","66.27401","0.4764667"
"0.99","71.42305","0.4914"
"1.02","80.7039","0.5066333"
"1.05","93.47995","0.5218667"
"1.08","106.5564","0.5368667"
"1.11","119.8363","0.5516334"
"1.14","132.6776","0.5665"
"1.17","145.3487","0.5815333"
"1.2","157.9746","0.5967"
"1.23","170.5384","0.6118333"
"1.26","183.053","0.6268"
"1.29","195.2696","0.6414334"
"1.32","207.1412","0.6563333"
"1.35","218.9469","0.6714666"
"1.38","230.7963","0.6867"
"1.41","242.8111","0.7019333"
"1.44","254.5889","0.7167333"
"1.47","266.0266","0.7315"
"1.5","276.9311","0.7465"
"1.53","287.7442","0.7617667"
"1.56","298.5072","0.7769"
"1.59","309.0437","0.7917667"
"1.62","319.2361","0.8065"
"1.65","329.0947","0.8215"
"1.68","338.6942","0.8366"
"1.71","348.1444","0.8517"
"1.74","357.4824","0.8669"
"1.77","366.4764","0.8818"
"1.8","375.0594","0.8966667"
"1.83","383.0989","0.9113667"
"1.86","391.0041","0.9266334"
"1.89","398.7114","0.9418333"
"1.92","406.0984","0.9569667"
"1.95","412.8003","0.9716333"
"1.98","418.2998","0.9865333"
"2.01","423.0777","1.001467"
"2.04","427.3319","1.016733"
"2.07","431.1991","1.031833"
"2.1","434.5369","1.0467"
"2.13","437.0833","1.061433"
"2.16","438.7633","1.076433"
"2.19","439.624","1.0917"
"2.22","439.8092","1.106833"
"2.25","439.1718","1.121967"
"2.28","437.6872","1.136633"
"2.31","435.8681","1.151667"
"2.34","434.3184","1.166367"
"2.37","433.2455","1.181633"
"2.4","432.9769","1.196833"
"2.43","433.6747","1.211733"
"2.46","435.5804","1.226433"
"2.49","438.1728","1.241367"
"2.52","441.5878","1.256633"
"2.55","445.4875","1.271933"
"2.58","449.9713","1.2868"
"2.61","454.9066","1.3016"
"2.64","459.9118","1.316567"
"2.67","464.8383","1.3315"
"2.7","469.9771","1.346733"
"2.73","475.297","1.361833"
"2.76","480.6042","1.376867"
"2.79","485.7349","1.3916"
"2.82","490.5995","1.406333"
"2.85","495.5991","1.4215"
"2.88","501.0851","1.4367"
"2.91","506.9272","1.452"
"2.94","512.5475","1.4667"
"2.97","517.8571","1.481633"
"3","522.9871","1.496533"
"3.03","528.2458","1.5118"
"3.06","533.6436","1.526867"
"3.09","539.1049","1.541733"
"3.12","544.3215","1.556433"
"3.15","549.3688","1.571433"
"3.18","554.4631","1.5866"
"3.21","559.6002","1.6017"
"3.24","564.6364","1.6169"
"3.27","569.485","1.631833"
"3.3","574.2137","1.646633"
"3.33","578.804","1.661433"
"3.36","583.4921","1.6766"
"3.39","587.7956","1.691833"
"3.42","591.8614","1.707033"
"3.45","595.9121","1.721467"
"3.48","599.2675","1.736433"
"3.51","602.7762","1.7515"
"3.54","606.509","1.766767"
"3.57","610.501","1.7818"
"3.6","614.4007","1.796733"
"3.63","618.0739","1.811433"
"3.66","621.2719","1.826533"
"3.69","624.5597","1.8416"
"3.72","628.0001","1.856833"
"3.75","631.5303","1.871967"
"3.78","634.9977","1.886633"
"3.81","637.9803","1.901467"
"3.84","640.6577","1.916367"
"3.87","643.7191","1.931533"
"3.9","647.0513","1.9469"
"3.93","650.4472","1.961767"
"3.96","653.7851","1.9765"
"3.99","656.7987","1.991433"
"4.02","659.7948","2.006733"
"4.05","662.8497","2.0219"
"4.08","666.0231","2.0369"
"4.11","669.0406","2.051667"
"4.14","671.9581","2.066633"
"4.17","674.8144","2.0815"
"4.2","677.7875","2.096733"
"4.23","681.0411","2.111767"
"4.26","684.2709","2.126833"
"4.29","687.4832","2.141567"
"4.32","690.5246","2.156467"
"4.35","693.7258","2.171467"
"4.38","696.8824","2.186767"
"4.41","700.2417","2.202"
"4.44","703.5168","2.216667"
"4.47","706.5153","2.2316"
"4.5","709.3477","2.2465"
"4.53","712.3097","2.261867"
"4.56","715.4735","2.2768"
"4.59","718.7263","2.2918"
"4.62","721.7939","2.3064"
"4.65","724.8394","2.321433"
"4.68","727.8347","2.336533"
"4.71","731.0279","2.3517"
"4.74","734.3563","2.366867"
"4.77","737.6377","2.381733"
"4.8","740.7673","2.396533"
"4.83","743.7507","2.411367"
"4.86","746.7985","2.4266"
"4.89","749.9957","2.441767"
"4.92","753.0833","2.4569"
"4.95","756.1262","2.4716"
"4.98","758.8943","2.486467"
"5.01","761.5272","2.5015"
"5.04","764.1546","2.516833"
"5.07","767.0538","2.5317"
"5.1","769.7383","2.546667"
"5.13","772.3713","2.561533"
"5.16","774.8421","2.5765"
"5.19","777.3034","2.5917"
"5.22","779.802","2.606833"
"5.25","782.2855","2.621967"
"5.28","784.6379","2.636733"
"5.31","786.5953","2.651633"
"5.34","788.4073","2.666367"
"5.37","790.2137","2.681667"
"5.4","792.199","2.6969"
"5.43","794.1349","2.711733"
"5.46","795.9382","2.7265"
"5.49","797.3941","2.741433"
"5.52","798.8437","2.7567"
"5.55","800.2877","2.771933"
"5.58","801.8351","2.786767"
"5.61","803.0748","2.8017"
"5.64","804.2828","2.8166"
"5.67","805.2126","2.831533"
"5.7","805.9414","2.847167"
"5.73","591.2479","2.862367"
"5.76","48.13353","2.8769"
"5.79","25.90179","2.891633"
"5.82","25.60774","2.906333"
"5.85","24.37671","2.9215"
"5.88","24.18518","2.9367"
"5.91","24.4387","2.9519"
"5.94","24.41645","2.9667"
"5.97","24.12319","2.9815"
"6","24.06518","2.996467"
"6.03","24.26783","3.011767"
"6.06","24.18439","3.026867"
"6.09","23.97935","3.041733"
"6.12","24.05326","3.056467"
"6.15","24.17088","3.0714"
"6.18","24.10253","3.086567"
"6.21","24.0016","3.1017"
"6.24","24.05326","3.116933"
"6.27","24.13114","3.131767"
"6.3","24.08266","3.1466"
"6.33","24.04451","3.161433"
"6.36","24.07551","3.176667"
"6.39","24.13432","3.191933"
"6.42","24.08663","3.206967"
"6.45","24.03736","3.2216"
"6.48","24.07789","3.2365"
"6.51","24.09379","3.2516"
"6.54","24.07312","3.2668"
"6.57","24.0318","3.281733"
"6.6","24.05087","3.2967"
"6.63","24.05961","3.3115"
"6.66","24.04849","3.3265"
"6.69","24.03736","3.3417"
"6.72","24.05723","3.356767"
"6.75","24.08743","3.371967"
"6.78","24.08504","3.3867"
"6.81","24.0763","3.401433"
"6.84","24.08425","3.416467"
"6.87","24.11127","3.4316"
"6.9","24.09617","3.4469"
"6.93","24.08187","3.461833"
"6.96","24.06915","3.4765"
"6.99","24.07074","3.491367"
"7.02","24.05802","3.5067"
"7.05","24.03577","3.521833"
"7.08","24.05961","3.536833"
"7.11","24.06041","3.551567"
"7.14","24.05802","3.5665"
"7.17","24.05961","3.581467"
"7.2","24.08187","3.596667"
"7.23","24.10412","3.611733"
"7.26","24.09617","3.625233"
"7.27","24.09617","3.6262"