File: degradation_testing/tensile_testing/Resin/Resin_Acetone/Resin_A_1.csv
"1 _ 1",,
"Time","Force","Stroke"
"sec","N","mm"
"0","0.4402796","0.0001"
"0.03","0.4975001","0.011"
"0.06","3.066063","0.0261"
"0.09","12.76096","0.04116667"
"0.12","24.53963","0.05626667"
"0.15","37.40947","0.07163333"
"0.18","50.99137","0.08673333"
"0.21","63.95896","0.1018"
"0.24","71.16953","0.1164667"
"0.27","71.63048","0.1313667"
"0.3","71.64637","0.1465333"
"0.33","71.65988","0.1617"
"0.36","71.67896","0.1769333"
"0.39","71.68611","0.1917"
"0.42","71.69008","0.2065"
"0.45","71.69247","0.2214"
"0.48","71.67101","0.2367"
"0.51","71.65988","0.2519333"
"0.54","71.6726","0.2667667"
"0.57","71.67101","0.2815333"
"0.6","71.68372","0.2965"
"0.63","71.69326","0.3115333"
"0.66","71.70598","0.3266"
"0.69","71.73538","0.3417667"
"0.72","71.78625","0.3567"
"0.75","71.83791","0.3715333"
"0.78","71.8689","0.3863333"
"0.81","71.87287","0.4016"
"0.84","71.88081","0.4168"
"0.87","71.87128","0.4319"
"0.9","71.85618","0.4466333"
"0.93","71.85538","0.4614667"
"0.96","71.97778","0.4764667"
"0.99","73.73254","0.4916667"
"1.02","80.96774","0.5069"
"1.05","92.20361","0.5217"
"1.08","103.871","0.5364"
"1.11","115.819","0.5513"
"1.14","128.111","0.5665333"
"1.17","141.1017","0.5816666"
"1.2","154.1257","0.5969"
"1.23","166.7126","0.6116334"
"1.26","178.593","0.6266"
"1.29","189.9608","0.6412333"
"1.32","201.0592","0.6565"
"1.35","211.943","0.6717667"
"1.38","222.2196","0.6867"
"1.41","231.2978","0.7014"
"1.44","238.2978","0.7163333"
"1.47","243.4007","0.7315667"
"1.5","247.7781","0.7468"
"1.53","252.0466","0.7618"
"1.56","256.087","0.7767"
"1.59","259.8524","0.7915334"
"1.62","263.3929","0.8065333"
"1.65","267.0089","0.8216333"
"1.68","270.7672","0.8368"
"1.71","274.5009","0.8518333"
"1.74","278.0596","0.8665667"
"1.77","281.2545","0.8812667"
"1.8","284.3992","0.8963333"
"1.83","287.3739","0.9116"
"1.86","290.2134","0.9268333"
"1.89","292.5507","0.9417334"
"1.92","294.5193","0.9564667"
"1.95","295.8433","0.9714"
"1.98","296.8478","0.9866667"
"2.01","298.6208","1.001867"
"2.04","300.6133","1.016767"
"2.07","302.5063","1.031467"
"2.1","304.5646","1.046433"
"2.13","306.9703","1.0615"
"2.16","309.8011","1.0767"
"2.19","313.1747","1.0918"
"2.22","316.8329","1.1067"
"2.25","320.7254","1.1215"
"2.28","324.6307","1.1364"
"2.31","328.842","1.151633"
"2.34","333.2003","1.166767"
"2.37","337.7326","1.181867"
"2.4","342.2515","1.196533"
"2.43","346.6209","1.2114"
"2.46","350.9871","1.226367"
"2.49","355.4789","1.241633"
"2.52","360.4952","1.2567"
"2.55","366.0997","1.271633"
"2.58","371.1224","1.286367"
"2.61","375.5959","1.301367"
"2.64","380.0019","1.3165"
"2.67","384.6184","1.331767"
"2.7","389.4861","1.346967"
"2.73","394.3427","1.361733"
"2.76","399.0491","1.376633"
"2.79","403.6951","1.3913"
"2.82","408.4643","1.406567"
"2.85","413.5609","1.4218"
"2.88","418.6972","1.4368"
"2.91","423.8622","1.4514"
"2.94","428.6885","1.466333"
"2.97","433.5761","1.481533"
"3","438.6306","1.496833"
"3.03","443.9831","1.511733"
"3.06","449.2712","1.5266"
"3.09","454.5251","1.541467"
"3.12","459.7068","1.556467"
"3.15","464.9313","1.5717"
"3.18","470.3561","1.586867"
"3.21","475.7778","1.6018"
"3.24","480.988","1.616467"
"3.27","485.9837","1.631467"
"3.3","491.1136","1.646367"
"3.33","496.3152","1.6616"
"3.36","501.7678","1.6769"
"3.39","507.2705","1.691633"
"3.42","512.4998","1.7065"
"3.45","517.4803","1.7214"
"3.48","522.5507","1.736667"
"3.51","527.6958","1.751867"
"3.54","532.9434","1.7668"
"3.57","538.0018","1.7815"
"3.6","542.663","1.7965"
"3.63","547.0507","1.811467"
"3.66","551.6592","1.826567"
"3.69","556.3569","1.841733"
"3.72","561.0959","1.856667"
"3.75","565.7601","1.871533"
"3.78","570.2392","1.886267"
"3.81","574.7525","1.9015"
"3.84","579.3286","1.916767"
"3.87","584.0635","1.931867"
"3.9","588.7739","1.9466"
"3.93","593.1544","1.9615"
"3.96","597.3363","1.976533"
"3.99","601.4402","1.991767"
"4.02","605.6968","2.006667"
"4.05","609.8072","2.021667"
"4.08","613.7848","2.036433"
"4.11","617.5566","2.051433"
"4.14","621.2537","2.066567"
"4.17","625.0429","2.081633"
"4.2","628.8775","2.096833"
"4.23","632.5563","2.111667"
"4.26","636.0316","2.126567"
"4.29","639.3385","2.1413"
"4.32","642.7606","2.156533"
"4.35","646.2979","2.171833"
"4.38","649.972","2.186733"
"4.41","653.526","2.201433"
"4.44","656.7383","2.216367"
"4.47","660.0134","2.231567"
"4.5","663.4958","2.2469"
"4.53","667.1874","2.261767"
"4.56","670.8392","2.276667"
"4.59","674.3566","2.291467"
"4.62","677.7652","2.306433"
"4.65","681.4043","2.321567"
"4.68","685.246","2.336867"
"4.71","689.2832","2.3519"
"4.74","693.1416","2.3665"
"4.77","696.8045","2.3812"
"4.8","700.4365","2.396367"
"4.83","704.298","2.411467"
"4.86","708.1572","2.426833"
"4.89","711.987","2.4417"
"4.92","715.7588","2.4565"
"4.95","719.2206","2.471367"
"4.98","722.754","2.486733"
"5.01","726.4439","2.501767"
"5.04","730.2872","2.5168"
"5.07","733.997","2.5315"
"5.1","737.7044","2.546467"
"5.13","741.2585","2.5615"
"5.16","744.8856","2.5766"
"5.19","748.6462","2.5918"
"5.22","752.2933","2.6067"
"5.25","755.7766","2.621567"
"5.28","758.9523","2.6364"
"5.31","762.2028","2.6516"
"5.34","765.4921","2.666767"
"5.37","768.9222","2.6819"
"5.4","772.295","2.696533"
"5.43","775.4413","2.711467"
"5.46","778.4247","2.726433"
"5.49","781.4407","2.741733"
"5.52","784.6371","2.756567"
"5.55","787.8328","2.771667"
"5.58","790.9004","2.786433"
"5.61","793.7797","2.801433"
"5.64","796.6447","2.816533"
"5.67","799.5566","2.831767"
"5.7","802.4343","2.846933"
"5.73","805.0363","2.861833"
"5.76","807.4769","2.8765"
"5.79","809.6822","2.8914"
"5.82","811.8582","2.906567"
"5.85","814.3083","2.921767"
"5.88","816.5892","2.936667"
"5.91","818.8137","2.9514"
"5.94","820.6177","2.966333"
"5.97","822.3899","2.9816"
"6","824.2266","2.996833"
"6.03","826.1641","3.011633"
"6.06","827.7225","3.0266"
"6.09","829.1713","3.041467"
"6.12","830.3396","3.056467"
"6.15","831.3918","3.071667"
"6.18","832.549","3.086767"
"6.21","833.6075","3.101867"
"6.24","834.504","3.1165"
"6.27","835.0643","3.1314"
"6.3","835.6261","3.146333"
"6.33","836.1467","3.161633"
"6.36","836.8715","3.176933"
"6.39","837.4095","3.191733"
"6.42","837.7385","3.206633"
"6.45","837.7949","3.221467"
"6.48","837.7298","3.236733"
"6.51","837.6368","3.251833"
"6.54","837.5867","3.266733"
"6.57","837.2347","3.2814"
"6.6","836.7173","3.296433"
"6.63","836.1228","3.311433"
"6.66","835.5856","3.326567"
"6.69","835.1167","3.341767"
"6.72","834.295","3.357267"
"6.75","595.9948","3.372033"
"6.78","55.40292","3.3852"
"6.79","40.65514","3.3865"