File: degradation_testing/tensile_testing/Resin/Resin_Water/Resin_W_4.csv
"1 _ 1",,
"Time","Force","Stroke"
"sec","N","mm"
"0","0.6055832","6.666667E-05"
"0.03","0.6985664","0.01093333"
"0.06","3.83536","0.02606667"
"0.09","15.8445","0.04126667"
"0.12","29.46456","0.05633333"
"0.15","41.6406","0.0716"
"0.18","50.84674","0.08666667"
"0.21","55.15973","0.1016"
"0.24","55.85273","0.1163333"
"0.27","55.07549","0.1313333"
"0.3","55.73352","0.1466"
"0.33","58.66289","0.1617"
"0.36","61.41106","0.1768667"
"0.39","61.70114","0.1916667"
"0.42","61.72975","0.2066333"
"0.45","61.76074","0.2213667"
"0.48","61.76551","0.2366333"
"0.51","61.72578","0.2518333"
"0.54","61.71227","0.2667333"
"0.57","61.67014","0.2814667"
"0.6","61.67889","0.2962667"
"0.63","61.75677","0.3115"
"0.66","61.81638","0.3267667"
"0.69","61.83704","0.3417667"
"0.72","61.85055","0.3566667"
"0.75","61.86644","0.3714667"
"0.78","61.87757","0.3865"
"0.81","61.95068","0.4016334"
"0.84","61.98565","0.4168667"
"0.87","61.9777","0.4319333"
"0.9","64.10837","0.4466"
"0.93","73.06576","0.4613"
"0.96","82.55879","0.4764"
"0.99","88.30547","0.4916"
"1.02","90.95033","0.5069"
"1.05","92.80761","0.5216333"
"1.08","97.91692","0.5364333"
"1.11","108.5512","0.5514"
"1.14","122.3715","0.5666667"
"1.17","136.7911","0.5818334"
"1.2","150.6488","0.5967333"
"1.23","163.695","0.6114333"
"1.26","176.5553","0.6264333"
"1.29","189.5444","0.6414334"
"1.32","202.3077","0.6565667"
"1.35","215.0107","0.6717667"
"1.38","227.4283","0.6867334"
"1.41","239.5821","0.7014667"
"1.44","251.2471","0.7163666"
"1.47","262.8644","0.7315333"
"1.5","274.3403","0.7466667"
"1.53","285.693","0.7619666"
"1.56","296.7572","0.7765334"
"1.59","307.1594","0.7914667"
"1.62","317.0172","0.8064667"
"1.65","326.5587","0.8216667"
"1.68","335.9048","0.8367667"
"1.71","344.8272","0.8516667"
"1.74","352.8301","0.8664"
"1.77","359.7498","0.8814334"
"1.8","366.1172","0.8965667"
"1.83","372.0403","0.9117"
"1.86","377.4691","0.9269333"
"1.89","382.6721","0.9416667"
"1.92","387.6726","0.9565334"
"1.95","392.6118","0.9713"
"1.98","397.7005","0.9865667"
"2.01","403.0355","1.001767"
"2.04","408.4039","1.016767"
"2.07","413.7365","1.0314"
"2.1","418.7997","1.046333"
"2.13","423.7533","1.0616"
"2.16","428.8188","1.0768"
"2.19","433.9973","1.0918"
"2.22","438.9779","1.106667"
"2.25","443.7177","1.121533"
"2.28","448.1983","1.136433"
"2.31","452.6663","1.151667"
"2.34","457.1827","1.166733"
"2.37","461.4671","1.181733"
"2.4","465.4916","1.196433"
"2.43","469.2411","1.211367"
"2.46","472.8818","1.226367"
"2.49","476.369","1.241567"
"2.52","479.8349","1.2569"
"2.55","482.9145","1.2717"
"2.58","485.2923","1.286467"
"2.61","486.8452","1.3014"
"2.64","488.8058","1.316733"
"2.67","491.5381","1.331867"
"2.7","494.3355","1.346767"
"2.73","497.276","1.361467"
"2.76","500.381","1.376433"
"2.79","503.5877","1.3914"
"2.82","507.0424","1.4066"
"2.85","510.9843","1.421833"
"2.88","515.1168","1.436733"
"2.91","519.3226","1.451467"
"2.94","523.5751","1.466233"
"2.97","528.0614","1.481567"
"3","532.9633","1.496733"
"3.03","537.9478","1.511933"
"3.06","542.9975","1.526533"
"3.09","547.7357","1.5415"
"3.12","552.1965","1.556433"
"3.15","556.9832","1.571733"
"3.18","562.0988","1.586667"
"3.21","566.9777","1.6017"
"3.24","571.6252","1.616367"
"3.27","575.9978","1.6314"
"3.3","580.3156","1.6466"
"3.33","584.681","1.661767"
"3.36","589.1212","1.6769"
"3.39","593.3165","1.691767"
"3.42","597.1559","1.7066"
"3.45","600.7632","1.721267"
"3.48","604.4125","1.736667"
"3.51","608.3894","1.7518"
"3.54","612.4091","1.766733"
"3.57","616.351","1.7814"
"3.6","620.0401","1.796267"
"3.63","623.8389","1.811533"
"3.66","627.826","1.826767"
"3.69","632.1088","1.841633"
"3.72","636.402","1.8567"
"3.75","640.9494","1.8715"
"3.78","645.353","1.886433"
"3.81","649.6684","1.9017"
"3.84","653.9678","1.916767"
"3.87","658.172","1.931833"
"3.9","662.2982","1.9466"
"3.93","666.2377","1.961233"
"3.96","670.1263","1.976367"
"3.99","674.1078","1.9916"
"4.02","678.3962","2.006867"
"4.05","682.6528","2.0216"
"4.08","686.6169","2.036433"
"4.11","690.4181","2.0514"
"4.14","694.3591","2.066767"
"4.17","698.4163","2.081833"
"4.2","702.5004","2.0967"
"4.23","706.3309","2.111467"
"4.26","710.0558","2.126367"
"4.29","713.5892","2.141467"
"4.32","717.1989","2.156633"
"4.35","720.9619","2.1718"
"4.38","724.6097","2.186767"
"4.41","728.1033","2.2015"
"4.44","731.4229","2.2163"
"4.47","734.849","2.231533"
"4.5","738.3505","2.2468"
"4.53","742.0961","2.261967"
"4.56","745.7097","2.2766"
"4.59","749.077","2.2915"
"4.62","752.2623","2.3065"
"4.65","755.4992","2.3217"
"4.68","758.8235","2.336667"
"4.71","762.0828","2.351667"
"4.74","765.1663","2.366333"
"4.77","768.1251","2.381333"
"4.8","771.0632","2.3965"
"4.83","774.0331","2.4117"
"4.86","777.1158","2.426933"
"4.89","780.1628","2.4417"
"4.92","783.0374","2.456467"
"4.95","785.7347","2.4713"
"4.98","788.521","2.486533"
"5.01","791.6713","2.501867"
"5.04","794.7747","2.5168"
"5.07","797.6151","2.5314"
"5.1","799.8752","2.546367"
"5.13","802.1156","2.561533"
"5.16","804.1072","2.576833"
"5.19","806.1115","2.591767"
"5.22","808.0745","2.606567"
"5.25","809.8721","2.621467"
"5.28","811.4942","2.636367"
"5.31","813.1822","2.651667"
"5.34","815.022","2.6667"
"5.37","816.8538","2.681833"
"5.4","818.5736","2.696533"
"5.43","820.024","2.7114"
"5.46","821.4553","2.7263"
"5.49","822.8016","2.741633"
"5.52","824.2647","2.756967"
"5.55","825.5975","2.7717"
"5.58","826.6417","2.7865"
"5.61","827.4229","2.801433"
"5.64","828.2105","2.816733"
"5.67","828.9758","2.831833"
"5.7","829.8182","2.846733"
"5.73","830.4381","2.861467"
"5.76","830.8618","2.876467"
"5.79","831.1772","2.891433"
"5.82","831.5364","2.906633"
"5.85","831.9163","2.921833"
"5.88","832.2183","2.9368"
"5.91","832.2986","2.951567"
"5.94","832.0936","2.966233"
"5.97","831.8138","2.9816"
"6","831.7042","2.996767"
"6.03","831.693","3.0119"
"6.06","831.5659","3.026567"
"6.09","831.1351","3.041467"
"6.12","830.5073","3.056433"
"6.15","829.9645","3.071667"
"6.18","829.5727","3.0868"
"6.21","680.3076","3.102033"
"6.24","73.46233","3.116467"
"6.27","28.54506","3.1314"
"6.3","26.77361","3.146567"
"6.33","25.67371","3.161733"
"6.36","25.65702","3.1769"
"6.39","25.86206","3.191667"
"6.42","25.70788","3.206533"
"6.45","25.4488","3.221333"
"6.48","25.5092","3.2366"
"6.51","25.68722","3.251833"
"6.54","25.53383","3.2667"
"6.57","25.37807","3.281367"
"6.6","25.50761","3.296233"
"6.63","25.56006","3.311533"
"6.66","25.39078","3.326833"
"6.69","25.34707","3.3418"
"6.72","25.4631","3.3567"
"6.75","25.51158","3.3715"
"6.78","25.45357","3.386467"
"6.81","25.42019","3.4017"
"6.84","25.4782","3.4168"
"6.87","25.49569","3.431833"
"6.9","25.43608","3.4465"
"6.93","25.42019","3.4613"
"6.96","25.46072","3.4765"
"6.99","25.45754","3.4916"
"7.02","25.41304","3.506867"
"7.05","25.41145","3.5217"
"7.08","25.44403","3.5365"
"7.11","25.42257","3.551367"
"7.14","25.39317","3.566667"
"7.17","25.41542","3.5819"
"7.2","25.4337","3.596767"
"7.23","25.43291","3.611533"
"7.26","25.44403","3.6264"
"7.29","25.45277","3.6414"
"7.32","25.45516","3.6566"
"7.35","25.4631","3.671767"
"7.38","25.46628","3.686733"
"7.41","25.45516","3.694067"