File: degradation_testing/tensile_testing/Resin/Resin_Water/Resin_W_5.csv
"1 _ 1",,
"Time","Force","Stroke"
"sec","N","mm"
"0","0.723203","6.666667E-05"
"0.03","0.7772446","0.01076667"
"0.06","3.739993","0.0258"
"0.09","15.20554","0.0414"
"0.12","28.90507","0.05673333"
"0.15","41.96405","0.07186667"
"0.18","54.03836","0.08666667"
"0.21","61.4357","0.1015"
"0.24","61.55412","0.1164"
"0.27","61.81399","0.1316667"
"0.3","61.79492","0.1467333"
"0.33","61.93479","0.1617"
"0.36","62.03811","0.1764333"
"0.39","62.174","0.1914333"
"0.42","62.23758","0.2066667"
"0.45","62.25983","0.2216333"
"0.48","62.24314","0.2368333"
"0.51","62.25348","0.2517"
"0.54","62.25109","0.2666333"
"0.57","62.21771","0.2813667"
"0.6","62.17321","0.2966333"
"0.63","62.16924","0.3118667"
"0.66","62.26778","0.3268"
"0.69","62.27334","0.3414667"
"0.72","62.28049","0.3563667"
"0.75","62.29639","0.3715333"
"0.78","62.30275","0.3867667"
"0.81","62.34805","0.4018333"
"0.84","62.38301","0.4166333"
"0.87","62.48156","0.4315"
"0.9","62.5658","0.4465"
"0.93","63.14834","0.4616667"
"0.96","70.49163","0.4768"
"0.99","81.58048","0.4919333"
"1.02","89.08272","0.5066"
"1.05","94.53058","0.5213667"
"1.08","103.2583","0.5364"
"1.11","116.6121","0.5515333"
"1.14","131.1119","0.5668667"
"1.17","144.9521","0.5817"
"1.2","158.4331","0.5965"
"1.23","171.2545","0.6114333"
"1.26","184.3007","0.6267334"
"1.29","197.4869","0.6418334"
"1.32","210.7946","0.6567"
"1.35","223.8274","0.6715"
"1.38","236.5367","0.6864667"
"1.41","248.6968","0.7015"
"1.44","260.8156","0.7166333"
"1.47","272.8804","0.7318"
"1.5","284.7211","0.7468333"
"1.53","296.2772","0.7615"
"1.56","307.1221","0.7763667"
"1.59","317.7556","0.7915667"
"1.62","328.3691","0.8067334"
"1.65","338.9851","0.8220333"
"1.68","349.2816","0.8365667"
"1.71","358.7477","0.8514667"
"1.74","367.6804","0.8664667"
"1.77","376.5376","0.8816667"
"1.8","385.2916","0.8967667"
"1.83","393.5568","0.9116667"
"1.86","400.7729","0.9264"
"1.89","407.3206","0.9414667"
"1.92","414.0202","0.9565667"
"1.95","419.898","0.9717333"
"1.98","425.3117","0.9869"
"2.01","430.3773","1.0017"
"2.04","435.2419","1.016567"
"2.07","439.8624","1.031367"
"2.1","444.4106","1.0466"
"2.13","448.85","1.0618"
"2.16","452.9977","1.076733"
"2.19","456.8545","1.091467"
"2.22","460.0501","1.1064"
"2.25","462.683","1.1216"
"2.28","464.7072","1.136833"
"2.31","466.3984","1.1518"
"2.34","468.2088","1.166733"
"2.37","469.6028","1.1815"
"2.4","470.6566","1.1964"
"2.43","472.4805","1.211667"
"2.46","475.2739","1.226733"
"2.49","478.6833","1.241867"
"2.52","482.587","1.2565"
"2.55","486.1959","1.271467"
"2.58","490.2355","1.2864"
"2.61","494.5628","1.3016"
"2.64","499.0951","1.3169"
"2.67","503.6163","1.331733"
"2.7","508.1367","1.346533"
"2.73","512.4974","1.361433"
"2.76","516.897","1.3767"
"2.79","521.5287","1.391867"
"2.82","526.3225","1.406733"
"2.85","530.8795","1.421467"
"2.88","535.1846","1.436433"
"2.91","539.4777","1.4514"
"2.94","543.9345","1.466633"
"2.97","548.4128","1.481833"
"3","552.5192","1.496767"
"3.03","556.2791","1.5115"
"3.06","559.8163","1.5263"
"3.09","563.4006","1.5416"
"3.12","567.0532","1.556733"
"3.15","570.5619","1.571867"
"3.18","573.9554","1.586667"
"3.21","577.0985","1.601533"
"3.24","580.0048","1.6164"
"3.27","583.0105","1.631733"
"3.3","586.3364","1.646667"
"3.33","589.7673","1.661667"
"3.36","593.2005","1.676433"
"3.39","596.5384","1.691467"
"3.42","599.9716","1.706633"
"3.45","603.6329","1.721667"
"3.48","607.3976","1.7369"
"3.51","611.1058","1.751733"
"3.54","614.659","1.766633"
"3.57","618.0636","1.781367"
"3.6","621.6478","1.7967"
"3.63","625.5142","1.811833"
"3.66","629.4974","1.826733"
"3.69","633.3073","1.8414"
"3.72","636.8661","1.856333"
"3.75","640.5401","1.8715"
"3.78","644.3032","1.886833"
"3.81","648.0956","1.9017"
"3.84","651.7831","1.9167"
"3.87","655.5565","1.9315"
"3.9","659.0899","1.946533"
"3.93","662.686","1.961667"
"3.96","666.2687","1.976833"
"3.99","669.8934","1.991967"
"4.02","673.3846","2.006633"
"4.05","676.6573","2.021267"
"4.08","679.3403","2.036433"
"4.11","682.3071","2.051533"
"4.14","685.4438","2.066833"
"4.17","688.436","2.081667"
"4.2","691.2542","2.0965"
"4.23","693.7989","2.111467"
"4.26","696.7934","2.1268"
"4.29","700.1416","2.1418"
"4.32","703.6304","2.156767"
"4.35","706.989","2.1715"
"4.38","710.295","2.186467"
"4.41","713.2713","2.201467"
"4.44","716.5106","2.2166"
"4.47","719.9987","2.231833"
"4.5","723.4073","2.2468"
"4.53","726.7658","2.261533"
"4.56","729.8525","2.2763"
"4.59","733.2388","2.2916"
"4.62","736.8088","2.3068"
"4.65","740.6624","2.321967"
"4.68","744.4731","2.336667"
"4.71","748.1098","2.351533"
"4.74","751.5709","2.366467"
"4.77","755.0136","2.381733"
"4.8","758.5446","2.396633"
"4.83","762.0756","2.411667"
"4.86","765.516","2.426367"
"4.89","768.8554","2.441433"
"4.92","772.024","2.456567"
"4.95","775.1989","2.471733"
"4.98","751.3992","2.487833"
"5.01","219.6495","2.501867"
"5.04","29.60285","2.516567"
"5.07","26.89123","2.531467"
"5.1","26.32697","2.546633"
"5.13","26.38817","2.561833"
"5.16","26.14737","2.576767"
"5.19","25.90895","2.591433"
"5.22","25.99239","2.606333"
"5.25","26.15531","2.6216"
"5.28","26.01941","2.636733"
"5.31","25.84616","2.651767"
"5.34","25.97491","2.6667"
"5.37","26.03928","2.681433"
"5.4","25.88352","2.696433"
"5.43","25.8263","2.711667"
"5.46","25.92405","2.7267"
"5.49","25.9312","2.741833"
"5.52","25.83901","2.756533"
"5.55","25.80086","2.7715"
"5.58","25.88352","2.786367"
"5.61","25.87636","2.801667"
"5.64","25.8255","2.816933"
"5.67","25.8255","2.8318"
"5.7","25.87954","2.846467"
"5.73","25.88431","2.8614"
"5.76","25.86524","2.8768"
"5.79","25.86842","2.8918"
"5.82","25.901","2.906767"
"5.85","25.92325","2.921567"
"5.88","25.90895","2.9365"
"5.91","25.89067","2.9515"
"5.94","25.90815","2.966667"
"5.97","25.90179","2.981833"
"6","25.87318","2.994367"
"6.01","25.8859","2.995"