File: degradation_testing/tensile_testing/Resin/Resin_Water/Resin_W_3.csv
"1 _ 1",,
"Time","Force","Stroke"
"sec","N","mm"
"0","0.5292892","0.0001"
"0.03","0.5873044","0.01076667"
"0.06","3.527005","0.0259"
"0.09","15.06488","0.04143333"
"0.12","28.92971","0.0567"
"0.15","40.80296","0.0717"
"0.18","48.61275","0.08633333"
"0.21","51.55484","0.1013"
"0.24","51.33708","0.1165667"
"0.27","50.93813","0.1317"
"0.3","52.88522","0.1469333"
"0.33","56.76985","0.1617"
"0.36","58.92356","0.1765"
"0.39","59.07536","0.1914333"
"0.42","59.37735","0.2067333"
"0.45","59.82796","0.2218333"
"0.48","59.08966","0.2367333"
"0.51","59.06184","0.2514667"
"0.54","59.04277","0.2664667"
"0.57","59.06105","0.2816"
"0.6","59.16119","0.2967333"
"0.63","59.21046","0.3118667"
"0.66","59.2351","0.3267667"
"0.69","59.25258","0.3416333"
"0.72","59.27324","0.3563333"
"0.75","59.27801","0.3716667"
"0.78","59.28914","0.3869"
"0.81","59.39325","0.4018667"
"0.84","59.47749","0.4165334"
"0.87","60.07512","0.4314"
"0.9","64.93568","0.4464667"
"0.93","72.02705","0.4617333"
"0.96","79.53326","0.4768333"
"0.99","84.54323","0.4916333"
"1.02","86.86384","0.5064334"
"1.05","89.4324","0.5214334"
"1.08","96.50549","0.5366333"
"1.11","109.2935","0.5517333"
"1.14","123.3673","0.5668333"
"1.17","137.5421","0.5815667"
"1.2","149.9398","0.5965334"
"1.23","162.3503","0.6113333"
"1.26","175.3147","0.6264667"
"1.29","188.3602","0.6417667"
"1.32","201.2706","0.6567"
"1.35","213.8821","0.6713667"
"1.38","225.9684","0.6863"
"1.41","237.8305","0.7016333"
"1.44","249.5901","0.7169"
"1.47","261.0397","0.7318"
"1.5","271.9506","0.7466334"
"1.53","282.2725","0.7615333"
"1.56","292.1335","0.7765667"
"1.59","301.7084","0.7916334"
"1.62","310.7993","0.8068"
"1.65","319.1606","0.8218"
"1.68","326.8178","0.8365334"
"1.71","333.4498","0.8512667"
"1.74","339.1179","0.8665"
"1.77","343.9768","0.8817"
"1.8","348.2326","0.8969333"
"1.83","352.3127","0.9117333"
"1.86","355.7467","0.9265667"
"1.89","358.1007","0.9414667"
"1.92","360.1209","0.9567333"
"1.95","362.1205","0.9718667"
"1.98","364.2559","0.9867"
"2.01","366.5527","1.0014"
"2.04","368.8455","1.016367"
"2.07","371.1804","1.0315"
"2.1","373.5081","1.0467"
"2.13","375.7087","1.0619"
"2.16","377.6789","1.0767"
"2.19","379.7738","1.0916"
"2.22","381.7964","1.106367"
"2.25","384.4969","1.121633"
"2.28","387.9094","1.136867"
"2.31","391.7798","1.1519"
"2.34","396.0729","1.166467"
"2.37","399.9877","1.1813"
"2.4","403.5433","1.196367"
"2.43","407.2317","1.2116"
"2.46","411.1258","1.226667"
"2.49","415.2751","1.2416"
"2.52","419.3083","1.2564"
"2.55","423.3026","1.271467"
"2.58","427.5497","1.286633"
"2.61","432.0892","1.3018"
"2.64","436.8202","1.316967"
"2.67","441.6132","1.331733"
"2.7","446.225","1.3465"
"2.73","450.716","1.361367"
"2.76","455.3183","1.376567"
"2.79","460.043","1.391833"
"2.82","464.6285","1.4067"
"2.85","469.0591","1.421433"
"2.88","472.6887","1.4364"
"2.91","476.1497","1.4517"
"2.94","479.7959","1.466867"
"2.97","483.938","1.481767"
"3","487.9435","1.4966"
"3.03","491.9497","1.5115"
"3.06","495.8328","1.5265"
"3.09","499.2151","1.541633"
"3.12","502.1318","1.556833"
"3.15","505.1382","1.5718"
"3.18","508.0525","1.586533"
"3.21","510.8666","1.601367"
"3.24","513.7468","1.616467"
"3.27","516.7492","1.631667"
"3.3","519.9011","1.647033"
"3.33","522.7288","1.661567"
"3.36","525.2361","1.6765"
"3.39","527.6315","1.691367"
"3.42","530.3176","1.7067"
"3.45","533.3225","1.721867"
"3.48","536.6214","1.736667"
"3.51","539.7526","1.751367"
"3.54","542.7321","1.766433"
"3.57","545.6956","1.7815"
"3.6","548.8141","1.796667"
"3.63","552.0383","1.8118"
"3.66","555.257","1.826667"
"3.69","558.4502","1.841567"
"3.72","561.4766","1.856267"
"3.75","564.7183","1.871567"
"3.78","568.2349","1.886767"
"3.81","571.8994","1.901867"
"3.84","575.691","1.9165"
"3.87","579.2427","1.931433"
"3.9","582.8166","1.9465"
"3.93","586.5797","1.9618"
"3.96","590.5835","1.976733"
"3.99","594.5635","1.991733"
"4.02","598.4561","2.006533"
"4.05","602.2954","2.021433"
"4.08","606.2301","2.036633"
"4.11","610.3762","2.0518"
"4.14","614.6526","2.0669"
"4.17","618.8766","2.081633"
"4.2","622.9695","2.096533"
"4.23","627.0703","2.111333"
"4.26","631.3173","2.1266"
"4.29","635.8448","2.141867"
"4.32","640.44","2.156733"
"4.35","644.8777","2.171467"
"4.38","649.0405","2.1864"
"4.41","653.1787","2.201667"
"4.44","657.5012","2.216933"
"4.47","661.8842","2.2318"
"4.5","666.0922","2.246567"
"4.53","670.1176","2.2615"
"4.56","674.0491","2.2764"
"4.59","678.1093","2.291633"
"4.62","682.2665","2.3068"
"4.65","686.4532","2.321767"
"4.68","690.4952","2.336533"
"4.71","694.2996","2.351233"
"4.74","698.0618","2.366467"
"4.77","702.1395","2.381567"
"4.8","706.257","2.396867"
"4.83","710.2004","2.411667"
"4.86","713.8054","2.426533"
"4.89","717.1003","2.441467"
"4.92","720.5391","2.456767"
"4.95","724.1193","2.471733"
"4.98","727.791","2.486667"
"5.01","731.3061","2.5014"
"5.04","734.6686","2.5164"
"5.07","738.043","2.531533"
"5.1","741.4874","2.5467"
"5.13","745.1002","2.5619"
"5.16","748.5588","2.576767"
"5.19","751.7759","2.591633"
"5.22","754.7371","2.6063"
"5.25","757.8651","2.621667"
"5.28","761.1616","2.636867"
"5.31","764.5559","2.6519"
"5.34","767.8549","2.666467"
"5.37","770.8065","2.6814"
"5.4","773.743","2.696467"
"5.43","776.7455","2.711767"
"5.46","779.9379","2.726633"
"5.49","783.0127","2.741733"
"5.52","786.1105","2.756467"
"5.55","788.962","2.7715"
"5.58","791.7778","2.786667"
"5.61","794.5776","2.8018"
"5.64","797.3846","2.816933"
"5.67","799.9825","2.831767"
"5.7","802.455","2.846367"
"5.73","804.7438","2.861367"
"5.76","807.2026","2.876533"
"5.79","810.0009","2.8918"
"5.82","812.6712","2.9067"
"5.85","815.0443","2.921367"
"5.88","816.9929","2.936333"
"5.91","819.006","2.951733"
"5.94","821.0103","2.966833"
"5.97","823.0607","2.981767"
"6","824.8091","2.9966"
"6.03","826.358","3.011467"
"6.06","827.6359","3.0264"
"6.09","828.89","3.041633"
"6.12","830.2617","3.0568"
"6.15","831.5054","3.0718"
"6.18","832.5378","3.0865"
"6.21","833.2729","3.101333"
"6.24","834.012","3.116467"
"6.27","834.7694","3.131733"
"6.3","835.6953","3.147"
"6.33","836.4153","3.1617"
"6.36","836.8468","3.1766"
"6.39","837.0034","3.191533"
"6.42","837.1345","3.206833"
"6.45","837.2712","3.2217"
"6.48","837.2656","3.2367"
"6.51","836.9899","3.2514"
"6.54","836.6339","3.266433"
"6.57","836.1959","3.281533"
"6.6","835.793","3.296633"
"6.63","835.4426","3.311867"
"6.66","834.8457","3.327167"
"6.69","618.275","3.342067"
"6.72","49.73332","3.356467"
"6.75","24.84242","3.3716"
"6.78","24.3028","3.386833"
"6.81","23.15998","3.401967"
"6.84","22.93666","3.416533"
"6.87","23.17031","3.4314"
"6.9","23.17667","3.446533"
"6.93","22.89216","3.461667"
"6.96","22.84924","3.4768"
"6.99","23.07256","3.491633"
"7.02","22.98832","3.5065"
"7.05","22.7801","3.521333"
"7.08","22.85878","3.5366"
"7.11","22.95176","3.551733"
"7.14","22.85401","3.5668"
"7.17","22.77533","3.5816"
"7.2","22.82063","3.5965"
"7.23","22.88342","3.611367"
"7.26","22.83812","3.6266"
"7.29","22.77374","3.641867"
"7.32","22.80076","3.656733"
"7.35","22.87785","3.671433"
"7.38","22.86116","3.6864"
"7.41","22.8405","3.701633"
"7.44","22.88024","3.7169"
"7.47","22.8858","3.731833"
"7.5","22.8556","3.7466"
"7.53","22.85163","3.761533"
"7.56","22.8556","3.776567"
"7.59","22.84288","3.791633"
"7.62","22.81348","3.806867"
"7.65","22.81666","3.821867"
"7.68","22.85004","3.8366"
"7.71","22.84527","3.851233"
"7.74","22.82461","3.866533"
"7.77","22.82937","3.8817"
"7.8","22.84288","3.896933"
"7.83","22.85401","3.911667"
"7.86","22.8556","3.9265"
"7.89","22.86116","3.941467"
"7.92","22.85163","3.956733"
"7.95","22.86673","3.971667"
"7.97","22.87149","3.9745"