File: degradation_testing/tensile_testing/Resin/Resin_Water/Resin_W_1.csv
"1 _ 1",,
"Time","Force","Stroke"
"sec","N","mm"
"0","1.773039","6.666667E-05"
"0.03","1.837412","0.01076667"
"0.06","4.446507","0.02603333"
"0.09","15.55522","0.04106667"
"0.12","29.77689","0.05656667"
"0.15","44.01366","0.07173333"
"0.18","57.88247","0.0868"
"0.21","67.62425","0.1015"
"0.24","68.79488","0.1163667"
"0.27","68.70349","0.1314333"
"0.3","68.71223","0.1466667"
"0.33","68.79409","0.1616667"
"0.36","68.86164","0.1766667"
"0.39","68.89264","0.1913667"
"0.42","68.93953","0.2064667"
"0.45","68.95145","0.2216"
"0.48","68.9594","0.2368"
"0.51","68.93317","0.2519333"
"0.54","68.90138","0.2667"
"0.57","68.868","0.2815"
"0.6","68.81635","0.2963667"
"0.63","68.83701","0.3115667"
"0.66","68.91886","0.3268667"
"0.69","68.9737","0.3417667"
"0.72","69.05953","0.3564333"
"0.75","69.10245","0.3713667"
"0.78","69.11755","0.3867"
"0.81","69.09768","0.4018667"
"0.84","69.07304","0.4168"
"0.87","69.03967","0.4316333"
"0.9","69.00708","0.4464667"
"0.93","69.05714","0.4615333"
"0.96","69.42352","0.4766333"
"0.99","74.82926","0.4918"
"1.02","84.56786","0.5067667"
"1.05","96.85119","0.5214667"
"1.08","110.4601","0.5363667"
"1.11","123.9665","0.5514333"
"1.14","137.6382","0.5665666"
"1.17","151.4292","0.5819333"
"1.2","165.0953","0.5966"
"1.23","178.2656","0.6114666"
"1.26","191.0686","0.6264333"
"1.29","203.9846","0.6417"
"1.32","216.8457","0.6567667"
"1.35","229.4477","0.6717"
"1.38","241.8208","0.6863667"
"1.41","253.7592","0.7013667"
"1.44","265.2089","0.7165334"
"1.47","276.6013","0.7316"
"1.5","287.8348","0.7468"
"1.53","298.7433","0.7616333"
"1.56","309.2297","0.7765334"
"1.59","319.1495","0.7913333"
"1.62","328.8579","0.8065667"
"1.65","338.2905","0.8217667"
"1.68","347.29","0.8368334"
"1.71","356.0623","0.8515"
"1.74","364.124","0.8664333"
"1.77","371.298","0.8815333"
"1.8","377.6415","0.8967"
"1.83","383.5352","0.9117666"
"1.86","389.0014","0.9267"
"1.89","394.1631","0.9414667"
"1.92","398.7837","0.9564334"
"1.95","403.1563","0.9716333"
"1.98","407.4184","0.9867333"
"2.01","411.5319","1.001867"
"2.04","415.4182","1.0166"
"2.07","418.9928","1.031567"
"2.1","422.4364","1.046367"
"2.13","425.938","1.061633"
"2.16","429.4316","1.076833"
"2.19","432.7448","1.091733"
"2.22","435.8252","1.106467"
"2.25","438.4359","1.121367"
"2.28","440.9512","1.136667"
"2.31","443.4943","1.1519"
"2.34","446.0271","1.166733"
"2.37","448.2826","1.181567"
"2.4","450.2042","1.196467"
"2.43","451.8882","1.211467"
"2.46","453.6621","1.2266"
"2.49","455.5837","1.241767"
"2.52","458.2175","1.256767"
"2.55","461.0467","1.271567"
"2.58","463.6073","1.286233"
"2.61","466.2744","1.3015"
"2.64","469.2475","1.3166"
"2.67","472.4741","1.331833"
"2.7","475.8294","1.346633"
"2.73","479.1753","1.361533"
"2.76","482.4042","1.376433"
"2.79","485.793","1.3918"
"2.82","489.4177","1.4067"
"2.85","493.0687","1.421667"
"2.88","496.5417","1.436467"
"2.91","500.083","1.4514"
"2.94","503.6847","1.466533"
"2.97","507.4819","1.481633"
"3","511.5533","1.496867"
"3.03","515.519","1.5118"
"3.06","519.4092","1.526567"
"3.09","522.9982","1.5413"
"3.12","526.7858","1.5567"
"3.15","530.6991","1.571833"
"3.18","534.3922","1.5869"
"3.21","538.1044","1.601467"
"3.24","541.6409","1.6164"
"3.27","545.2521","1.6315"
"3.3","548.9818","1.6467"
"3.33","553.0016","1.6616"
"3.36","556.5818","1.676633"
"3.39","557.3368","1.6915"
"3.42","557.5538","1.706467"
"3.45","557.944","1.721633"
"3.48","558.5996","1.7368"
"3.51","559.1694","1.751933"
"3.54","557.944","1.766733"
"3.57","557.8589","1.781333"
"3.6","558.2913","1.796367"
"3.63","559.473","1.811533"
"3.66","561.7229","1.8268"
"3.69","564.251","1.841633"
"3.72","566.8561","1.8564"
"3.75","569.1481","1.871333"
"3.78","571.9081","1.886633"
"3.81","575.1165","1.901833"
"3.84","578.7372","1.916733"
"3.87","582.2388","1.9316"
"3.9","585.6943","1.9465"
"3.93","589.0361","1.961433"
"3.96","592.4479","1.976633"
"3.99","596.1378","1.9918"
"4.02","599.9645","2.006767"
"4.05","603.7013","2.021467"
"4.08","607.3284","2.036367"
"4.11","611.186","2.0514"
"4.14","615.0071","2.0667"
"4.17","619.1444","2.081933"
"4.2","623.2333","2.0967"
"4.23","627.1585","2.111567"
"4.26","630.8134","2.1265"
"4.29","634.5233","2.141767"
"4.32","638.3499","2.156767"
"4.35","642.2225","2.171667"
"4.38","645.9904","2.1864"
"4.41","649.7471","2.201433"
"4.44","653.3631","2.216467"
"4.47","656.5333","2.231667"
"4.5","659.5898","2.2468"
"4.53","662.5637","2.261733"
"4.56","665.6042","2.276567"
"4.59","668.5678","2.291333"
"4.62","671.7101","2.306567"
"4.65","675.2197","2.321833"
"4.68","678.6259","2.336867"
"4.71","681.9216","2.351533"
"4.74","684.9464","2.366433"
"4.77","687.9854","2.381433"
"4.8","691.0523","2.396733"
"4.83","694.3615","2.4117"
"4.86","697.5269","2.426633"
"4.89","700.6168","2.4414"
"4.92","703.6027","2.456333"
"4.95","706.6568","2.4716"
"4.98","709.8286","2.486667"
"5.01","713.0551","2.501867"
"5.04","716.2833","2.516567"
"5.07","719.2898","2.531533"
"5.1","722.2144","2.5463"
"5.13","725.2606","2.561533"
"5.16","728.4888","2.576833"
"5.19","731.6947","2.5917"
"5.22","734.7886","2.606467"
"5.25","737.6019","2.621367"
"5.28","740.5377","2.636667"
"5.31","743.6196","2.651867"
"5.34","746.8494","2.666767"
"5.37","749.9456","2.681567"
"5.4","753.1023","2.696567"
"5.43","756.1016","2.7115"
"5.46","759.2916","2.726667"
"5.49","762.5175","2.7418"
"5.52","765.6924","2.756833"
"5.55","768.702","2.771567"
"5.58","771.4486","2.786233"
"5.61","774.1133","2.8015"
"5.64","776.879","2.816633"
"5.67","779.8259","2.831967"
"5.7","782.7473","2.8467"
"5.73","785.4263","2.8615"
"5.76","787.7946","2.876433"
"5.79","790.2773","2.891767"
"5.82","792.8967","2.9068"
"5.85","795.5599","2.9216"
"5.88","798.0092","2.936433"
"5.91","800.3704","2.951367"
"5.94","802.5972","2.9665"
"5.97","804.8717","2.9817"
"6","807.1494","2.996833"
"6.03","809.1807","3.011733"
"6.06","811.1223","3.026567"
"6.09","812.8341","3.041333"
"6.12","814.6588","3.0566"
"6.15","816.5582","3.071767"
"6.18","818.5514","3.086833"
"6.21","820.3538","3.101433"
"6.24","821.8519","3.116367"
"6.27","823.2339","3.1314"
"6.3","824.6501","3.146733"
"6.33","826.1466","3.161633"
"6.36","827.4921","3.176633"
"6.39","828.5499","3.1915"
"6.42","829.37","3.206467"
"6.45","830.1497","3.221667"
"6.48","830.9189","3.236767"
"6.51","831.7177","3.251933"
"6.54","832.3487","3.2667"
"6.57","832.7556","3.281467"
"6.6","832.9852","3.296367"
"6.63","833.2292","3.311567"
"6.66","833.722","3.326833"
"6.69","834.0287","3.341667"
"6.72","834.1702","3.356433"
"6.75","833.989","3.371333"
"6.78","833.7307","3.3867"
"6.81","833.4764","3.401967"
"6.84","833.1799","3.416767"
"6.87","832.5696","3.431567"
"6.9","831.8265","3.446467"
"6.93","830.1329","3.4622"
"6.96","527.3994","3.477"
"6.99","44.88945","3.491833"
"7.02","34.12088","3.506767"
"7.05","33.92776","3.5215"
"7.08","33.06627","3.536367"
"7.11","32.72613","3.551467"
"7.14","32.82626","3.566667"
"7.17","32.93912","3.5819"
"7.2","32.78971","3.596667"
"7.23","32.64825","3.611533"
"7.26","32.75712","3.626433"
"7.29","32.81673","3.6417"
"7.32","32.63633","3.656867"
"7.35","32.58149","3.671633"
"7.38","32.6856","3.686333"
"7.41","32.65381","3.7014"
"7.44","32.58784","3.7165"
"7.47","32.5648","3.7316"
"7.5","32.60533","3.7468"
"7.53","32.62361","3.761733"
"7.56","32.57434","3.7766"
"7.59","32.58784","3.7914"
"7.62","32.64109","3.806633"
"7.65","32.64507","3.821833"
"7.68","32.62281","3.836867"
"7.71","32.62043","3.8515"
"7.74","32.65142","3.866433"
"7.77","32.65142","3.881533"
"7.8","32.63394","3.896633"
"7.83","32.62043","3.911767"
"7.86","32.61646","3.926667"
"7.89","32.60772","3.941467"
"7.92","32.58944","3.956433"
"7.95","32.58705","3.9717"
"7.98","32.60295","3.986733"
"8.01","32.59818","4.0019"
"8.04","32.58149","4.0166"
"8.07","32.59818","4.031567"
"8.1","32.61646","4.046367"
"8.13","32.62997","4.061634"
"8.16","32.62361","4.076833"
"8.19","32.64268","4.091767"
"8.22","32.64983","4.106367"
"8.25","32.64586","4.121334"
"8.28","32.62281","4.136633"
"8.31","32.6252","4.151834"
"8.34","32.62758","4.165667"
"8.35","32.61646","4.166934"