File: degradation_testing/tensile_testing/Resin/Resin_Water/Resin_W_2.csv
"1 _ 1",,
"Time","Force","Stroke"
"sec","N","mm"
"0","0.3862381","0.0001333333"
"0.03","0.4975001","0.01123333"
"0.06","5.420049","0.02643333"
"0.09","18.71189","0.0416"
"0.12","32.31605","0.05686667"
"0.15","43.80941","0.0717"
"0.18","51.78849","0.0865"
"0.21","53.11568","0.1014333"
"0.24","53.26509","0.1167333"
"0.27","53.77531","0.1318333"
"0.3","53.8667","0.1468"
"0.33","53.91995","0.1614667"
"0.36","53.93982","0.1764667"
"0.39","53.92949","0.1915"
"0.42","53.90485","0.2067"
"0.45","53.83174","0.2219333"
"0.48","53.80869","0.2368333"
"0.51","53.81107","0.2516333"
"0.54","53.89611","0.2664333"
"0.57","53.92949","0.2817"
"0.6","53.93426","0.2969"
"0.63","53.90723","0.3119667"
"0.66","53.96048","0.3266"
"0.69","53.96207","0.3415"
"0.72","53.98035","0.3566"
"0.75","54.02803","0.3717667"
"0.78","54.01452","0.3868333"
"0.81","54.00499","0.4017"
"0.84","54.04711","0.4165"
"0.87","54.09877","0.4314667"
"0.9","54.1997","0.4467"
"0.93","55.9028","0.4618333"
"0.96","65.5063","0.4769333"
"0.99","75.68518","0.4917667"
"1.02","81.86817","0.5066"
"1.05","87.14676","0.5214334"
"1.08","97.54976","0.5366"
"1.11","111.1325","0.5518"
"1.14","124.6921","0.5667"
"1.17","137.9728","0.5814"
"1.2","150.9515","0.5963666"
"1.23","163.8929","0.6116"
"1.26","176.781","0.6268667"
"1.29","189.5873","0.6417667"
"1.32","202.0717","0.6565667"
"1.35","213.9624","0.6715333"
"1.38","225.3318","0.6865667"
"1.41","236.6217","0.7016"
"1.44","247.4761","0.7168"
"1.47","257.9061","0.7318333"
"1.5","267.8156","0.7464667"
"1.53","276.8302","0.7613"
"1.56","285.2782","0.7765"
"1.59","293.1483","0.7916334"
"1.62","299.9743","0.8069333"
"1.65","305.6049","0.8217667"
"1.68","311.2531","0.8365667"
"1.71","316.2622","0.8515334"
"1.74","320.8772","0.8668"
"1.77","325.3126","0.8818667"
"1.8","329.3705","0.8968334"
"1.83","332.6861","0.9115"
"1.86","335.145","0.9264667"
"1.89","336.5668","0.9415667"
"1.92","337.1843","0.9567"
"1.95","336.7495","0.9718333"
"1.98","335.9715","0.9867333"
"2.01","335.9405","1.0016"
"2.04","336.5866","1.016433"
"2.07","338.0028","1.0317"
"2.1","340.0071","1.046867"
"2.13","342.5177","1.061967"
"2.16","345.1562","1.076633"
"2.19","347.3997","1.091467"
"2.22","349.5685","1.106567"
"2.25","352.8349","1.121767"
"2.28","357.1351","1.1368"
"2.31","360.8855","1.151633"
"2.34","364.0866","1.166433"
"2.37","367.0669","1.1814"
"2.4","370.0765","1.196567"
"2.43","373.1704","1.2118"
"2.46","376.691","1.2269"
"2.49","380.4684","1.2417"
"2.52","384.5366","1.256467"
"2.55","389.0713","1.271433"
"2.58","394.0741","1.286567"
"2.61","399.3734","1.3018"
"2.64","404.714","1.316767"
"2.67","410.107","1.331433"
"2.7","415.1686","1.346367"
"2.73","420.2581","1.361667"
"2.76","425.5128","1.376867"
"2.79","430.9201","1.391833"
"2.82","436.1169","1.406633"
"2.85","441.1674","1.421567"
"2.88","445.9643","1.4366"
"2.91","450.9004","1.451733"
"2.94","455.8849","1.466867"
"2.97","460.6334","1.481833"
"3","464.627","1.496567"
"3.03","468.2183","1.511467"
"3.06","472.0283","1.526467"
"3.09","475.9256","1.541767"
"3.12","480.1297","1.557"
"3.15","484.1542","1.571767"
"3.18","487.8251","1.586567"
"3.21","491.027","1.6015"
"3.24","494.2489","1.616733"
"3.27","497.5851","1.631833"
"3.3","500.9627","1.6468"
"3.33","504.241","1.6615"
"3.36","507.4445","1.6765"
"3.39","510.4176","1.691567"
"3.42","513.3502","1.7067"
"3.45","516.2072","1.721833"
"3.48","518.8783","1.736867"
"3.51","521.3396","1.751533"
"3.54","523.5775","1.766333"
"3.57","525.7781","1.781633"
"3.6","528.2394","1.796767"
"3.63","530.7571","1.811867"
"3.66","533.3026","1.8265"
"3.69","535.7321","1.841467"
"3.72","538.1846","1.856567"
"3.75","541.0409","1.8718"
"3.78","544.2246","1.886667"
"3.81","547.4631","1.901667"
"3.84","550.7834","1.916467"
"3.87","553.9838","1.9315"
"3.9","557.2287","1.946733"
"3.93","560.6953","1.9618"
"3.96","564.2501","1.977"
"3.99","567.8717","1.991667"
"4.02","571.3757","2.006667"
"4.05","574.8892","2.021367"
"4.08","578.6348","2.036667"
"4.11","582.6513","2.051867"
"4.14","586.6512","2.066767"
"4.17","590.5461","2.0815"
"4.2","594.2114","2.096433"
"4.23","597.9411","2.111733"
"4.26","601.7955","2.126967"
"4.29","605.6746","2.1418"
"4.32","609.3526","2.156667"
"4.35","613.0115","2.171567"
"4.38","616.4249","2.186567"
"4.41","620.0433","2.2017"
"4.44","623.7523","2.216767"
"4.47","627.3977","2.2319"
"4.5","631.0932","2.246567"
"4.53","634.5892","2.261233"
"4.56","637.8428","2.2765"
"4.59","641.1083","2.291667"
"4.62","644.5876","2.306967"
"4.65","648.0066","2.321767"
"4.68","651.207","2.3365"
"4.71","654.13","2.351467"
"4.74","657.3447","2.366833"
"4.77","660.7961","2.3818"
"4.8","664.169","2.396767"
"4.83","667.1985","2.411467"
"4.86","669.7464","2.4264"
"4.89","672.2371","2.441433"
"4.92","674.8986","2.4566"
"4.95","677.9122","2.4718"
"4.98","680.8559","2.4867"
"5.01","683.8616","2.501667"
"5.04","686.7663","2.516367"
"5.07","689.787","2.5316"
"5.1","692.9485","2.546867"
"5.13","696.3118","2.561967"
"5.16","699.3771","2.5766"
"5.19","702.0505","2.591533"
"5.22","704.7772","2.606567"
"5.25","707.6287","2.621833"
"5.28","710.7401","2.636633"
"5.31","713.857","2.651633"
"5.34","716.97","2.666467"
"5.37","720.1147","2.6815"
"5.4","723.2881","2.696767"
"5.43","726.5647","2.711867"
"5.46","729.8573","2.726967"
"5.49","732.9377","2.741833"
"5.52","735.9124","2.756567"
"5.55","738.7519","2.771467"
"5.58","741.5509","2.786633"
"5.61","744.6989","2.801867"
"5.64","747.8237","2.816767"
"5.67","750.9065","2.831467"
"5.7","753.7111","2.846367"
"5.73","756.4871","2.861667"
"5.76","759.3592","2.876867"
"5.79","762.5762","2.891767"
"5.82","765.7242","2.906567"
"5.85","768.6774","2.921567"
"5.88","771.5352","2.936533"
"5.91","774.231","2.951767"
"5.94","776.8949","2.966767"
"5.97","779.3959","2.981833"
"6","781.7443","2.9965"
"6.03","783.879","3.011433"
"6.06","786.1312","3.0264"
"6.09","788.3644","3.0417"
"6.12","790.7844","3.056967"
"6.15","793.0215","3.071667"
"6.18","795.0465","3.086567"
"6.21","796.8815","3.101467"
"6.24","798.6911","3.1168"
"6.27","800.6239","3.131867"
"6.3","802.5265","3.1468"
"6.33","804.073","3.161533"
"6.36","805.4439","3.176467"
"6.39","806.6503","3.191533"
"6.42","807.8702","3.206667"
"6.45","809.0886","3.2219"
"6.48","810.229","3.236867"
"6.51","811.1691","3.251667"
"6.54","811.8097","3.266333"
"6.57","812.42","3.2817"
"6.6","813.2108","3.296833"
"6.63","814.0024","3.311867"
"6.66","814.5873","3.326567"
"6.69","814.9059","3.341533"
"6.72","815.022","3.356567"
"6.75","815.0991","3.3718"
"6.78","799.4199","3.387833"
"6.81","284.1226","3.401833"
"6.84","21.68337","3.416567"
"6.87","18.92169","3.431467"
"6.9","18.28432","3.446633"
"6.93","18.26207","3.461767"
"6.96","17.89331","3.476967"
"6.99","17.6843","3.491667"
"7.02","17.83609","3.506633"
"7.05","17.95133","3.521367"
"7.08","17.70894","3.536633"
"7.11","17.60562","3.551833"
"7.14","17.79159","3.566767"
"7.17","17.76854","3.581467"
"7.2","17.60006","3.5964"
"7.23","17.59768","3.611633"
"7.26","17.6994","3.626833"
"7.29","17.67476","3.641767"
"7.32","17.57463","3.6566"
"7.35","17.58178","3.671567"
"7.38","17.66602","3.686533"
"7.41","17.65013","3.701733"
"7.44","17.58417","3.7168"
"7.47","17.62629","3.731833"
"7.5","17.69066","3.746533"
"7.53","17.6692","3.761433"
"7.56","17.64377","3.7766"
"7.59","17.65013","3.7917"
"7.62","17.67794","3.8069"
"7.65","17.66205","3.8217"
"7.68","17.63026","3.8366"
"7.71","17.64139","3.851533"
"7.74","17.64218","3.8667"
"7.77","17.62152","3.8819"
"7.8","17.61675","3.8968"
"7.83","17.61913","3.911567"
"7.86","17.63026","3.926467"
"7.89","17.61436","3.941533"
"7.92","17.63741","3.9567"
"7.95","17.63503","3.971867"
"7.98","17.65013","3.9868"
"8.01","17.65887","4.0016"
"8.04","17.65251","4.016467"
"8.07","17.68669","4.031734"
"8.1","17.68669","4.046834"
"8.13","17.67476","4.061934"
"8.16","17.66682","4.076567"
"8.19","17.65728","4.091467"
"8.22","17.67079","4.1065"
"8.25","17.64615","4.121667"
"8.28","17.64456","4.1368"
"8.31","17.64139","4.1516"
"8.34","17.63662","4.1664"
"8.37","17.639","4.181467"
"8.4","17.64218","4.196633"
"8.43","17.639","4.2118"
"8.46","17.65331","4.226933"
"8.49","17.64456","4.2417"
"8.52","17.66682","4.2566"
"8.55","17.67715","4.2714"
"8.58","17.6692","4.286533"
"8.6","17.66364","4.291"