File: degradation_testing/tensile_testing/Resin/Resin_Control/R-run-3.csv
"1 _ 1",,
"Time","Force","Stroke"
"sec","N","mm"
"0","-4.457633","0.0001"
"0.02","-4.444122","0.006066667"
"0.04","-4.065037","0.0157"
"0.06","-1.111031","0.026"
"0.08","6.209215","0.03643334"
"0.1","15.42807","0.04653334"
"0.12","24.84322","0.05663333"
"0.14","33.91584","0.06673333"
"0.16","42.43612","0.07656667"
"0.18","50.20142","0.08633333"
"0.2","56.46149","0.0964"
"0.22","60.21102","0.1064"
"0.24","61.12973","0.1165667"
"0.26","61.09158","0.1266333"
"0.28","61.46828","0.1368333"
"0.3","61.61372","0.1469333"
"0.32","61.63995","0.1567667"
"0.34","61.64233","0.1666"
"0.36","61.63995","0.1766333"
"0.38","61.63438","0.1863667"
"0.4","61.62246","0.1963667"
"0.42","61.57398","0.2066667"
"0.44","61.54696","0.2168333"
"0.46","61.48497","0.2269"
"0.48","61.44047","0.2368667"
"0.5","61.40391","0.2466667"
"0.52","61.39596","0.2564667"
"0.54","61.42457","0.2663333"
"0.56","61.48021","0.2764667"
"0.58","61.50882","0.2867333"
"0.6","61.55809","0.2967"
"0.62","61.60657","0.3068"
"0.64","61.6916","0.3167667"
"0.66","61.73452","0.3267334"
"0.68","61.74723","0.3364"
"0.7","61.75041","0.3465667"
"0.72","61.77664","0.3565"
"0.74","61.79174","0.3666333"
"0.76","61.77187","0.3766333"
"0.78","61.72578","0.3868"
"0.8","61.72736","0.3969"
"0.82","61.77902","0.4067"
"0.84","61.77902","0.4165667"
"0.86","61.86326","0.4266667"
"0.88","62.35838","0.4362667"
"0.9","65.44829","0.4464333"
"0.92","72.06361","0.4566"
"0.94","79.06119","0.4667"
"0.96","84.55356","0.4767"
"0.98","88.38018","0.4867667"
"1","91.15935","0.4966334"
"1.02","93.71916","0.5064334"
"1.04","96.87186","0.5163333"
"1.06","102.2625","0.5264333"
"1.08","110.5213","0.5366667"
"1.1","120.6279","0.5466667"
"1.12","130.7042","0.5568333"
"1.14","139.2786","0.5667667"
"1.16","148.0238","0.5766333"
"1.18","157.6726","0.5864667"
"1.2","166.568","0.5964333"
"1.22","174.8141","0.6064"
"1.24","183.4989","0.6165333"
"1.26","192.0923","0.6266667"
"1.28","200.758","0.6367667"
"1.3","209.7805","0.6467667"
"1.32","218.1745","0.6566667"
"1.34","226.3602","0.6665"
"1.36","234.6373","0.6765667"
"1.38","242.5385","0.6863667"
"1.4","250.5867","0.6963667"
"1.42","258.6007","0.7065667"
"1.44","266.389","0.7166667"
"1.46","274.3832","0.7268333"
"1.48","282.0269","0.7367667"
"1.5","289.228","0.7466667"
"1.52","296.3376","0.7565"
"1.54","303.4004","0.7663667"
"1.56","310.5855","0.7765334"
"1.58","317.653","0.7867333"
"1.6","324.4543","0.7968"
"1.62","331.0672","0.8068"
"1.64","337.0881","0.8168"
"1.66","342.4637","0.8266667"
"1.68","347.3552","0.8364"
"1.7","351.8987","0.8465334"
"1.72","356.2943","0.8565333"
"1.74","360.5978","0.8666"
"1.76","364.8066","0.8766"
"1.78","368.9893","0.8867667"
"1.8","372.8851","0.8969333"
"1.82","376.6616","0.9067333"
"1.84","380.4048","0.9166334"
"1.86","384.0168","0.9266"
"1.88","387.6265","0.9362333"
"1.9","391.3427","0.9463333"
"1.92","395.124","0.9565334"
"1.94","398.9665","0.9666667"
"1.96","402.809","0.9767667"
"1.98","406.6022","0.9868"
"2","410.4241","0.9966667"
"2.02","414.2118","1.0065"
"2.04","417.9192","1.016367"
"2.06","421.5598","1.026433"
"2.08","425.1933","1.0367"
"2.1","428.8157","1.046767"
"2.12","432.6502","1.056833"
"2.14","436.5452","1.066733"
"2.16","440.4354","1.076567"
"2.18","444.2684","1.086367"
"2.2","448.0871","1.096467"
"2.22","451.8859","1.106433"
"2.24","455.7085","1.116533"
"2.26","459.5796","1.126633"
"2.28","463.6097","1.136733"
"2.3","467.7455","1.146867"
"2.32","471.8725","1.156767"
"2.34","475.9725","1.166533"
"2.36","479.8849","1.176633"
"2.38","483.6519","1.186367"
"2.4","487.562","1.1963"
"2.42","491.5659","1.2066"
"2.44","495.6142","1.216767"
"2.46","499.7531","1.2269"
"2.48","503.7363","1.236767"
"2.5","507.6218","1.2466"
"2.52","511.3928","1.256467"
"2.54","515.1002","1.2664"
"2.56","518.8688","1.276467"
"2.58","522.7264","1.2867"
"2.6","526.5609","1.296767"
"2.62","530.4694","1.306733"
"2.64","534.4144","1.316733"
"2.66","538.3563","1.326667"
"2.68","542.3181","1.336367"
"2.7","546.4451","1.3465"
"2.72","550.4179","1.356533"
"2.74","554.2628","1.3665"
"2.76","558.0775","1.3766"
"2.78","561.9804","1.386833"
"2.8","565.9811","1.396933"
"2.82","570.0286","1.406767"
"2.84","574.0261","1.416667"
"2.86","578.014","1.426667"
"2.88","582.0568","1.436333"
"2.9","586.1481","1.446367"
"2.92","589.993","1.456633"
"2.94","593.826","1.466733"
"2.96","597.7265","1.4768"
"2.98","601.5325","1.486833"
"3","605.3162","1.496567"
"3.02","609.0435","1.506433"
"3.04","612.5562","1.516367"
"3.06","616.0657","1.5265"
"3.08","619.6443","1.536733"
"3.1","623.2182","1.546733"
"3.12","626.8176","1.556733"
"3.14","630.4232","1.566767"
"3.16","634.0098","1.576633"
"3.18","637.5686","1.5864"
"3.2","641.0193","1.5964"
"3.22","644.296","1.606467"
"3.24","647.467","1.616567"
"3.26","650.6538","1.626667"
"3.28","653.9337","1.6368"
"3.3","657.1571","1.646933"
"3.32","660.2319","1.6567"
"3.34","663.2638","1.666533"
"3.36","666.2305","1.676567"
"3.38","669.2449","1.686333"
"3.4","672.369","1.696367"
"3.42","675.4979","1.706633"
"3.44","678.6013","1.716733"
"3.46","681.8016","1.726833"
"3.48","684.9471","1.7368"
"3.5","688.1062","1.746567"
"3.52","691.1238","1.756467"
"3.54","693.9236","1.7664"
"3.56","696.7847","1.776467"
"3.58","699.652","1.786733"
"3.6","702.4916","1.796767"
"3.62","705.4297","1.806767"
"3.64","708.3622","1.816733"
"3.66","711.1915","1.826533"
"3.68","713.869","1.8364"
"3.7","716.4367","1.8465"
"3.72","718.9687","1.856567"
"3.74","721.5555","1.866567"
"3.76","724.1742","1.8766"
"3.78","726.8278","1.8868"
"3.8","729.4655","1.8969"
"3.82","732.046","1.906767"
"3.84","734.6257","1.916567"
"3.86","737.1052","1.926633"
"3.88","739.4854","1.936267"
"3.9","741.9387","1.946367"
"3.92","744.4056","1.956567"
"3.94","746.9948","1.9667"
"3.96","749.6786","1.976867"
"3.98","752.2909","1.986767"
"4","754.9023","1.996667"
"4.02","757.3613","2.006533"
"4.04","759.689","2.016433"
"4.06","761.9715","2.026533"
"4.08","764.3231","2.036767"
"4.1","766.6937","2.0468"
"4.12","769.128","2.056733"
"4.14","771.478","2.066767"
"4.16","773.72","2.076667"
"4.18","775.9301","2.086433"
"4.2","778.1482","2.096533"
"4.22","780.317","2.106467"
"4.24","782.4175","2.116833"
"4.26","735.6667","2.1275"
"4.28","372.3486","2.136933"
"4.3","53.47411","2.146867"
"4.32","30.50963","2.150667"