File: degradation_testing/tensile_testing/Resin/Resin_Control/R-run-2.csv
"1 _ 1",,
"Time","Force","Stroke"
"sec","N","mm"
"0","0.4132589","6.666667E-05"
"0.03","0.4601479","0.0108"
"0.06","3.333886","0.0263"
"0.09","13.9904","0.0415"
"0.12","26.36353","0.05633333"
"0.15","38.2026","0.0712"
"0.18","48.43314","0.08653334"
"0.21","52.53633","0.1017"
"0.24","52.86853","0.1168667"
"0.27","52.71196","0.1316333"
"0.3","52.74375","0.1464667"
"0.33","52.78508","0.1614667"
"0.36","52.90429","0.1768"
"0.39","52.92098","0.1917667"
"0.42","52.90429","0.2067667"
"0.45","52.8876","0.2214333"
"0.48","52.8725","0.2364"
"0.51","52.88839","0.2516333"
"0.54","52.89316","0.2667"
"0.57","52.917","0.2819667"
"0.6","52.92416","0.2966667"
"0.63","52.98138","0.3115667"
"0.66","53.04416","0.3263"
"0.69","53.08469","0.3415"
"0.72","53.08469","0.3568"
"0.75","53.07118","0.3718"
"0.78","53.0537","0.3865"
"0.81","53.07992","0.4013667"
"0.84","53.11568","0.4165667"
"0.87","53.16893","0.4317333"
"0.9","53.34298","0.4467667"
"0.93","57.38974","0.4615667"
"0.96","66.50527","0.4764667"
"0.99","74.44223","0.4914334"
"1.02","81.89281","0.5066667"
"1.05","89.03901","0.5217333"
"1.08","98.98504","0.5368333"
"1.11","110.1319","0.5514666"
"1.14","121.6936","0.5664"
"1.17","134.0612","0.5813667"
"1.2","145.0388","0.5966"
"1.23","157.6972","0.6119334"
"1.26","168.8496","0.6266333"
"1.29","180.7245","0.6414"
"1.32","191.1823","0.6563666"
"1.35","202.1496","0.6716"
"1.38","212.9078","0.6868667"
"1.41","223.6923","0.7017667"
"1.44","234.4283","0.7164667"
"1.47","244.4379","0.7314333"
"1.5","254.4363","0.7464333"
"1.53","264.1185","0.7616"
"1.56","273.9255","0.7768"
"1.59","283.2627","0.7918333"
"1.62","292.1152","0.8065667"
"1.65","300.1054","0.8213"
"1.68","308.2585","0.8365334"
"1.71","316.5412","0.8517667"
"1.74","324.475","0.8669"
"1.77","331.9272","0.8815"
"1.8","338.4256","0.8965"
"1.83","343.9935","0.9114333"
"1.86","348.897","0.9266667"
"1.89","353.5104","0.9417334"
"1.92","357.9887","0.9566"
"1.95","362.0863","0.9713333"
"1.98","365.8899","0.9863667"
"2.01","369.4479","1.0016"
"2.04","372.87","1.016733"
"2.07","376.0409","1.031933"
"2.1","378.8264","1.046733"
"2.13","381.2885","1.061567"
"2.16","383.5623","1.076367"
"2.19","385.8805","1.091567"
"2.22","388.2543","1.106767"
"2.25","390.3222","1.121767"
"2.28","391.6685","1.136433"
"2.31","392.6539","1.151367"
"2.34","393.7483","1.1665"
"2.37","394.9547","1.1817"
"2.4","396.2676","1.196667"
"2.43","397.4803","1.211567"
"2.46","398.5842","1.2265"
"2.49","399.7254","1.241533"
"2.52","401.1456","1.2567"
"2.55","402.9576","1.271767"
"2.58","404.9969","1.2868"
"2.61","407.0926","1.301467"
"2.64","409.2423","1.3163"
"2.67","411.7012","1.3314"
"2.7","414.4366","1.346567"
"2.73","417.5194","1.361933"
"2.76","420.6006","1.376633"
"2.79","423.5443","1.391467"
"2.82","426.3369","1.406433"
"2.85","429.306","1.4218"
"2.88","432.4873","1.4368"
"2.91","435.9229","1.451767"
"2.94","439.4484","1.466533"
"2.97","442.9499","1.481467"
"3","446.2878","1.4964"
"3.03","449.7433","1.511533"
"3.06","453.4507","1.526667"
"3.09","457.058","1.5417"
"3.12","460.7725","1.5565"
"3.15","464.3409","1.571367"
"3.18","468.0999","1.586533"
"3.21","472.0306","1.6018"
"3.24","476.2077","1.616967"
"3.27","480.326","1.6316"
"3.3","484.2234","1.646467"
"3.33","488.0126","1.661433"
"3.36","491.8877","1.676733"
"3.39","495.9742","1.6917"
"3.42","500.0893","1.7066"
"3.45","504.0057","1.721367"
"3.48","507.9762","1.736333"
"3.51","512.0428","1.7515"
"3.54","516.2629","1.766733"
"3.57","520.5059","1.781933"
"3.6","524.5495","1.796767"
"3.63","528.2847","1.811467"
"3.66","531.8951","1.826367"
"3.69","535.5477","1.841567"
"3.72","539.4332","1.8568"
"3.75","543.1874","1.871733"
"3.78","547.0347","1.886433"
"3.81","550.7827","1.9013"
"3.84","554.3661","1.916533"
"3.87","557.754","1.9318"
"3.9","561.3875","1.946667"
"3.93","564.8708","1.9617"
"3.96","568.3589","1.9765"
"3.99","571.8088","1.991533"
"4.02","575.4399","2.006667"
"4.05","579.2792","2.021767"
"4.08","583.2441","2.036833"
"4.11","587.1066","2.051533"
"4.14","590.996","2.0664"
"4.17","595.0228","2.0813"
"4.2","599.0045","2.096633"
"4.23","603.2554","2.111867"
"4.26","607.3395","2.1267"
"4.29","611.4284","2.141467"
"4.32","615.2654","2.156367"
"4.35","619.243","2.171667"
"4.38","623.4296","2.1868"
"4.41","627.8189","2.201733"
"4.44","632.0524","2.216567"
"4.47","636.3463","2.231433"
"4.5","640.428","2.2465"
"4.53","644.5909","2.261667"
"4.56","648.8268","2.276767"
"4.59","652.9728","2.291833"
"4.62","657.0681","2.306567"
"4.65","660.9941","2.321233"
"4.68","664.8493","2.336567"
"4.71","669.0406","2.351733"
"4.74","673.3298","2.366767"
"4.77","677.4783","2.3815"
"4.8","681.3923","2.396467"
"4.83","685.2825","2.411467"
"4.86","689.2721","2.426767"
"4.89","693.4452","2.441667"
"4.92","697.4618","2.4566"
"4.95","701.2789","2.471333"
"4.98","704.9465","2.4864"
"5.01","708.522","2.501633"
"5.04","712.2294","2.516733"
"5.07","716.0179","2.531967"
"5.1","719.6982","2.546667"
"5.13","723.2467","2.5616"
"5.16","726.6243","2.5763"
"5.19","730.1799","2.5916"
"5.22","733.9279","2.606767"
"5.25","737.749","2.621733"
"5.28","741.4325","2.636467"
"5.31","744.8181","2.651367"
"5.34","748.2608","2.666633"
"5.37","751.609","2.681833"
"5.4","755.0422","2.696567"
"5.43","758.2911","2.711533"
"5.46","761.5081","2.726533"
"5.49","764.6823","2.7415"
"5.52","767.8254","2.7567"
"5.55","771.0878","2.771733"
"5.58","774.3112","2.786767"
"5.61","777.475","2.801567"
"5.64","780.522","2.816267"
"5.67","783.4578","2.8314"
"5.7","786.5016","2.846567"
"5.73","789.7544","2.8619"
"5.76","792.8578","2.876733"
"5.79","795.7538","2.8915"
"5.82","798.1896","2.9064"
"5.85","800.6573","2.9217"
"5.88","803.2044","2.936833"
"5.91","805.8008","2.9518"
"5.94","808.2509","2.966467"
"5.97","810.5119","2.981367"
"6","812.6267","2.996367"
"6.03","814.7963","3.011567"
"6.06","817.1066","3.0267"
"6.09","819.3","3.041733"
"6.12","821.29","3.056567"
"6.15","823.032","3.071333"
"6.18","824.7733","3.086533"
"6.21","826.4868","3.101767"
"6.24","828.2264","3.116933"
"6.27","829.7467","3.1316"
"6.3","830.9778","3.146533"
"6.33","832.0244","3.161533"
"6.36","833.0973","3.176767"
"6.39","834.2346","3.1916"
"6.42","835.3225","3.206567"
"6.45","836.1427","3.221367"
"6.48","836.881","3.236433"
"6.51","837.5788","3.251533"
"6.54","838.1987","3.266767"
"6.57","838.8654","3.282"
"6.6","839.3645","3.2967"
"6.63","839.5219","3.311567"
"6.66","839.4607","3.326333"
"6.69","839.3486","3.341533"
"6.72","839.3216","3.357233"
"6.75","613.0823","3.372267"
"6.78","41.23688","3.3865"
"6.8","22.14273","3.390567"