File: degradation_testing/tensile_testing/Resin/Resin_Control/R-run-5.csv
"1 _ 1",,
"Time","Force","Stroke"
"sec","N","mm"
"0","1.521111","0.0001"
"0.02","1.529853","0.006066667"
"0.04","1.875559","0.016"
"0.06","4.731019","0.02616667"
"0.08","11.99961","0.03613333"
"0.1","20.93474","0.0462"
"0.12","30.01213","0.05626667"
"0.14","39.06806","0.06646667"
"0.16","47.671","0.07656667"
"0.18","55.5102","0.0867"
"0.2","60.51064","0.09683333"
"0.22","61.57637","0.1066333"
"0.24","61.44285","0.1163667"
"0.26","61.12814","0.1264667"
"0.28","61.05185","0.1364333"
"0.3","61.19967","0.1465333"
"0.32","61.32205","0.1566"
"0.34","61.4508","0.1667667"
"0.36","61.60498","0.1768667"
"0.38","61.6765","0.1867333"
"0.4","61.72736","0.1966333"
"0.42","61.76949","0.2066"
"0.44","61.7965","0.2163333"
"0.46","61.80525","0.2264667"
"0.48","61.81002","0.2366"
"0.5","61.79889","0.2467333"
"0.52","61.78538","0.2568"
"0.54","61.76074","0.2668"
"0.56","61.70511","0.2766333"
"0.58","61.67571","0.2864333"
"0.6","61.66697","0.2964"
"0.62","61.67014","0.3065"
"0.64","61.65187","0.3166"
"0.66","61.6924","0.3266333"
"0.68","61.75836","0.3368"
"0.7","61.82512","0.3467667"
"0.72","61.86565","0.3566333"
"0.74","61.89902","0.3664"
"0.76","61.9189","0.3764667"
"0.78","61.93002","0.3864333"
"0.8","61.96658","0.3966"
"0.82","61.99757","0.4066667"
"0.84","62.01903","0.4168333"
"0.86","62.0238","0.4268667"
"0.88","62.03095","0.4368"
"0.9","62.02459","0.4466"
"0.92","62.83839","0.4565667"
"0.94","67.1657","0.4664"
"0.96","74.48673","0.4764"
"0.98","81.74896","0.4866667"
"1","88.01142","0.4967667"
"1.02","93.43306","0.5068667"
"1.04","99.07643","0.5168334"
"1.06","106.8322","0.5267"
"1.08","115.7967","0.5364"
"1.1","125.169","0.5462667"
"1.12","134.6199","0.5564333"
"1.14","143.8038","0.5665666"
"1.16","152.8017","0.5766"
"1.18","161.9824","0.5867667"
"1.2","171.1202","0.5967"
"1.22","180.134","0.6067"
"1.24","189.1748","0.6163667"
"1.26","198.1878","0.6265333"
"1.28","207.1246","0.6364334"
"1.3","216.0915","0.6464667"
"1.32","224.9153","0.6565667"
"1.34","233.6295","0.6667333"
"1.36","242.149","0.6768333"
"1.38","250.4691","0.6867667"
"1.4","258.7692","0.6965333"
"1.42","267.0058","0.7065667"
"1.44","275.205","0.7162333"
"1.46","283.3962","0.7262334"
"1.48","291.493","0.7365667"
"1.5","299.511","0.7467334"
"1.52","307.5202","0.7567334"
"1.54","315.4095","0.7668334"
"1.56","323.1883","0.7766333"
"1.58","330.9751","0.7864333"
"1.6","338.5862","0.7964"
"1.62","346.0121","0.8064667"
"1.64","353.4118","0.8167"
"1.66","360.678","0.8267334"
"1.68","367.9411","0.8368334"
"1.7","375.2216","0.8468"
"1.72","382.506","0.8566667"
"1.74","389.6443","0.8664333"
"1.76","396.4909","0.8765"
"1.78","403.0442","0.8864334"
"1.8","409.4211","0.8965"
"1.82","415.7416","0.9066"
"1.84","422.1821","0.9167"
"1.86","428.5526","0.9268"
"1.88","434.6283","0.9367"
"1.9","440.3535","0.9465667"
"1.92","445.5948","0.9565667"
"1.94","450.4458","0.9664"
"1.96","455.3405","0.9763"
"1.98","460.3243","0.9865667"
"2","464.9965","0.9966334"
"2.02","469.389","1.006833"
"2.04","473.4794","1.016833"
"2.06","477.3521","1.026733"
"2.08","480.9634","1.0365"
"2.1","484.3187","1.0464"
"2.12","487.4245","1.056467"
"2.14","490.2863","1.0667"
"2.16","493.056","1.076767"
"2.18","495.8781","1.0869"
"2.2","498.7717","1.096867"
"2.22","501.6764","1.106633"
"2.24","504.4492","1.1164"
"2.26","507.0853","1.1265"
"2.28","509.6316","1.136467"
"2.3","512.3568","1.146533"
"2.32","515.2416","1.156633"
"2.34","518.2838","1.166767"
"2.36","521.3825","1.1768"
"2.38","524.4517","1.1867"
"2.4","527.5591","1.196567"
"2.42","530.688","1.2066"
"2.44","533.8303","1.216167"
"2.46","537.0991","1.2263"
"2.48","540.4027","1.236533"
"2.5","543.8837","1.2466"
"2.52","547.533","1.256767"
"2.54","551.1617","1.266767"
"2.56","554.8557","1.276667"
"2.58","558.4232","1.286433"
"2.6","561.7984","1.296367"
"2.62","565.0846","1.3064"
"2.64","568.3994","1.316667"
"2.66","571.7921","1.326733"
"2.68","575.397","1.336867"
"2.7","579.0607","1.346767"
"2.72","582.6251","1.356533"
"2.74","586.0456","1.366367"
"2.76","589.3668","1.3765"
"2.78","592.6188","1.3864"
"2.8","595.9519","1.3965"
"2.82","599.2047","1.406633"
"2.84","602.5934","1.416733"
"2.86","605.9623","1.4268"
"2.88","609.2254","1.436767"
"2.9","612.4647","1.4466"
"2.92","615.6461","1.4566"
"2.94","618.7963","1.466433"
"2.96","622.0118","1.4763"
"2.98","625.2106","1.4866"
"3","628.3498","1.4967"
"3.02","631.6129","1.506867"
"3.04","634.8212","1.516867"
"3.06","637.9811","1.5267"
"3.08","641.1107","1.536433"
"3.1","644.0067","1.546367"
"3.12","646.7661","1.5564"
"3.14","649.4904","1.5666"
"3.16","652.2282","1.576767"
"3.18","655.0399","1.586833"
"3.2","657.8525","1.596733"
"3.22","660.5323","1.606633"
"3.24","663.0604","1.6164"
"3.26","665.5963","1.6265"
"3.28","668.0298","1.6365"
"3.3","670.5022","1.6465"
"3.32","673.0374","1.6566"
"3.34","675.6441","1.666833"
"3.36","678.3168","1.676933"
"3.38","681.088","1.6868"
"3.4","683.8902","1.6967"
"3.42","686.4309","1.706633"
"3.44","688.7189","1.716267"
"3.46","690.9395","1.726367"
"3.48","693.14","1.7366"
"3.5","695.467","1.746667"
"3.52","697.9124","1.7568"
"3.54","700.291","1.766767"
"3.56","702.6593","1.7766"
"3.58","704.8932","1.7864"
"3.6","706.9842","1.7964"
"3.62","709.1014","1.806433"
"3.64","711.2829","1.816667"
"3.66","713.4406","1.826767"
"3.68","715.696","1.836767"
"3.7","718.0079","1.8467"
"3.72","720.2244","1.8566"
"3.74","722.3598","1.866333"
"3.76","724.504","1.876433"
"3.78","726.6069","1.886467"
"3.8","728.7065","1.896433"
"3.82","730.811","1.9066"
"3.84","732.9233","1.9168"
"3.86","735.0477","1.926933"
"3.88","737.1203","1.936733"
"3.9","739.1421","1.9466"
"3.92","741.0081","1.9566"
"3.94","742.8105","1.9664"
"3.96","744.4684","1.976367"
"3.98","745.9617","1.9866"
"4","747.5583","1.996633"
"4.02","749.2884","2.0068"
"4.04","751.0765","2.016967"
"4.06","752.9219","2.0266"
"4.08","754.6639","2.0364"
"4.1","756.1819","2.0464"
"4.12","757.7562","2.056433"
"4.14","759.4784","2.066633"
"4.16","761.191","2.0767"
"4.18","762.9879","2.0868"
"4.2","764.7999","2.0967"
"4.22","766.5237","2.106567"
"4.24","768.1274","2.116333"
"4.26","769.674","2.1265"
"4.28","771.1657","2.136567"
"4.3","772.6987","2.146567"
"4.32","774.2444","2.1566"
"4.34","775.8045","2.166767"
"4.36","777.3423","2.176867"
"4.38","778.877","2.186767"
"4.4","780.406","2.1966"
"4.42","781.819","2.2066"
"4.44","783.1144","2.2163"
"4.46","784.3217","2.226333"
"4.48","785.5272","2.236633"
"4.5","786.8353","2.2467"
"4.52","788.238","2.256833"
"4.54","789.5883","2.266833"
"4.56","790.9338","2.276633"
"4.58","792.1592","2.2865"
"4.6","793.2623","2.2964"
"4.62","794.3471","2.3065"
"4.64","795.4136","2.316733"
"4.66","796.4309","2.3268"
"4.68","797.5237","2.3367"
"4.7","798.5711","2.3468"
"4.72","799.5025","2.356667"
"4.74","800.4459","2.3664"
"4.76","801.3845","2.376433"
"4.78","802.207","2.386433"
"4.8","803.0454","2.396533"
"4.82","803.9856","2.406533"
"4.84","805.0521","2.416633"
"4.86","806.0686","2.426767"
"4.88","806.9937","2.436667"
"4.9","807.9282","2.446567"
"4.92","808.7548","2.4566"
"4.94","809.4835","2.466333"
"4.96","810.2957","2.4763"
"4.98","811.0889","2.4866"
"5","811.89","2.4967"
"5.02","812.8325","2.5068"
"5.04","813.7289","2.516867"
"5.06","814.5778","2.526633"
"5.08","815.3176","2.5365"
"5.1","815.866","2.546367"
"5.12","807.2726","2.5575"
"5.14","586.9508","2.567133"
"5.16","138.4624","2.5769"
"5.18","30.29505","2.583167"
"5.19","30.61215","2.583467"