File: degradation_testing/tensile_testing/Resin/Resin_Control/R-run-1.csv
"1 _ 1",,
"Time","Force","Stroke"
"sec","N","mm"
"0","0.2408028","6.666667E-05"
"0.02","0.2463659","0.006166667"
"0.04","0.6159146","0.0159"
"0.06","3.536542","0.0263"
"0.08","11.18581","0.03636667"
"0.1","21.01262","0.0464"
"0.12","30.40234","0.05616667"
"0.14","39.03468","0.0663"
"0.16","46.31837","0.07656667"
"0.18","50.4756","0.0866"
"0.2","51.82902","0.09676667"
"0.22","52.19857","0.1069"
"0.24","52.16122","0.1167"
"0.26","52.17632","0.1264"
"0.28","52.27566","0.1364333"
"0.3","52.30427","0.1465333"
"0.32","52.31698","0.1567"
"0.34","52.32652","0.1667333"
"0.36","52.35036","0.1769333"
"0.38","52.36467","0.1868333"
"0.4","52.36387","0.1967"
"0.42","52.38692","0.2065"
"0.44","52.37023","0.2166"
"0.46","52.3448","0.2265333"
"0.48","52.40202","0.2365333"
"0.5","52.35354","0.2466667"
"0.52","52.4044","0.2567333"
"0.54","52.41553","0.2668333"
"0.56","52.47752","0.2768667"
"0.58","52.46162","0.2867"
"0.6","52.4807","0.2965333"
"0.62","52.48308","0.3062333"
"0.64","52.49818","0.3163667"
"0.66","52.4958","0.3266"
"0.68","52.49818","0.3365667"
"0.7","52.46719","0.3468"
"0.72","52.49183","0.3568667"
"0.74","52.50692","0.3668"
"0.76","52.5713","0.3765"
"0.78","52.61819","0.3865"
"0.8","52.68733","0.3964667"
"0.82","52.77872","0.4066667"
"0.84","53.16893","0.4166667"
"0.86","55.21297","0.4269"
"0.88","60.30321","0.4367667"
"0.9","66.19691","0.4466333"
"0.92","70.53375","0.4564667"
"0.94","72.62707","0.4664667"
"0.96","74.02499","0.4764"
"0.98","77.72128","0.4865"
"1","86.24872","0.4967"
"1.02","96.37595","0.5066667"
"1.04","105.8531","0.5168"
"1.06","115.3533","0.5267667"
"1.08","125.258","0.5365667"
"1.1","134.8782","0.5465"
"1.12","144.0652","0.5564"
"1.14","153.3953","0.5663334"
"1.16","162.5602","0.5767"
"1.18","171.7091","0.5867"
"1.2","180.9827","0.5968333"
"1.22","190.0458","0.6068333"
"1.24","199.0437","0.6166667"
"1.26","207.8183","0.6264333"
"1.28","216.3442","0.6364"
"1.3","224.6992","0.6464334"
"1.32","232.8499","0.6565667"
"1.34","240.9863","0.6666"
"1.36","249.1236","0.6768"
"1.38","257.2282","0.6867334"
"1.4","265.247","0.6966333"
"1.42","272.9869","0.7064667"
"1.44","280.4891","0.7165"
"1.46","287.8078","0.7264333"
"1.48","295.1566","0.7365"
"1.5","302.2552","0.7466334"
"1.52","308.9515","0.7568"
"1.54","315.1989","0.7668334"
"1.56","320.9909","0.7769"
"1.58","326.4038","0.7867666"
"1.6","331.3684","0.7966667"
"1.62","335.8579","0.8063334"
"1.64","339.9332","0.8163667"
"1.66","343.6502","0.8266333"
"1.68","347.1661","0.8366"
"1.7","350.6565","0.8468667"
"1.72","353.9499","0.8569"
"1.74","357.155","0.8666667"
"1.76","360.287","0.8763334"
"1.78","363.2593","0.8864334"
"1.8","366.2062","0.8964334"
"1.82","369.3549","0.9066"
"1.84","372.6609","0.9167667"
"1.86","376.1602","0.9268667"
"1.88","379.7762","0.9367334"
"1.9","383.3326","0.9466333"
"1.92","386.7952","0.9564667"
"1.94","390.2928","0.9664667"
"1.96","393.7594","0.9763667"
"1.98","397.2459","0.9865667"
"2","400.7975","0.9966667"
"2.02","404.5145","1.006833"
"2.04","408.237","1.016867"
"2.06","411.8657","1.026767"
"2.08","415.4626","1.036633"
"2.1","419.027","1.0466"
"2.12","422.5922","1.0564"
"2.14","426.3282","1.066433"
"2.16","430.1755","1.076633"
"2.18","434.0569","1.0866"
"2.2","438.091","1.0968"
"2.22","442.2076","1.106933"
"2.24","446.403","1.116633"
"2.26","450.5412","1.126433"
"2.28","454.4958","1.136467"
"2.3","458.4869","1.146467"
"2.32","462.5623","1.156567"
"2.34","466.6686","1.166667"
"2.36","470.8823","1.176833"
"2.38","475.1468","1.186667"
"2.4","479.3024","1.1965"
"2.42","483.3094","1.2064"
"2.44","487.2632","1.216567"
"2.46","491.1788","1.2265"
"2.48","495.0992","1.2365"
"2.5","499.0617","1.246633"
"2.52","503.0839","1.256767"
"2.54","507.3055","1.266833"
"2.56","511.6089","1.2768"
"2.58","515.8003","1.286633"
"2.6","519.9178","1.2966"
"2.62","524.2062","1.3063"
"2.64","528.7544","1.3163"
"2.66","533.1222","1.3266"
"2.68","537.2691","1.336667"
"2.7","541.4947","1.346867"
"2.72","545.6996","1.356833"
"2.74","549.864","1.366733"
"2.76","553.9258","1.376433"
"2.78","557.8455","1.3865"
"2.8","561.7086","1.396433"
"2.82","565.5885","1.406667"
"2.84","569.4747","1.416767"
"2.86","573.4714","1.426833"
"2.88","577.449","1.4368"
"2.9","581.3543","1.446633"
"2.92","585.2016","1.4565"
"2.94","589.0592","1.466533"
"2.96","592.8961","1.476433"
"2.98","596.7418","1.486467"
"3","600.5828","1.496667"
"3.02","604.519","1.506633"
"3.04","608.5062","1.516733"
"3.06","612.3916","1.526767"
"3.08","616.3446","1.5366"
"3.1","620.2698","1.546533"
"3.12","623.9843","1.5564"
"3.14","627.7513","1.566367"
"3.16","631.6137","1.576567"
"3.18","635.4896","1.5867"
"3.2","639.5117","1.596833"
"3.22","643.5355","1.6069"
"3.24","647.4916","1.616667"
"3.26","651.3214","1.626467"
"3.28","654.9589","1.636433"
"3.3","658.5598","1.6465"
"3.32","662.171","1.656667"
"3.34","665.7934","1.6668"
"3.36","669.5906","1.6768"
"3.38","673.4268","1.6867"
"3.4","677.123","1.6966"
"3.42","680.7216","1.706433"
"3.44","684.3138","1.716567"
"3.46","687.8209","1.726433"
"3.48","691.367","1.7364"
"3.5","694.9496","1.746633"
"3.52","698.5616","1.756767"
"3.54","702.1992","1.766833"
"3.56","705.8184","1.7768"
"3.58","709.405","1.786667"
"3.6","712.8716","1.796567"
"3.62","716.1863","1.806267"
"3.64","719.5131","1.816433"
"3.66","722.8255","1.8266"
"3.68","726.2063","1.836633"
"3.7","729.603","1.8468"
"3.72","732.9178","1.8569"
"3.74","736.2087","1.8666"
"3.76","739.4012","1.876433"
"3.78","742.3885","1.8865"
"3.8","745.3934","1.896433"
"3.82","748.4063","1.906667"
"3.84","751.3054","1.9168"
"3.86","754.3333","1.926767"
"3.88","757.3947","1.936767"
"3.9","760.301","1.946733"
"3.92","763.1691","1.9564"
"3.94","765.9904","1.966567"
"3.96","768.6504","1.976433"
"3.98","771.3683","1.986533"
"4","774.1102","1.996667"
"4.02","776.8813","2.0068"
"4.04","779.6661","2.016867"
"4.06","782.3642","2.026867"
"4.08","784.9606","2.036633"
"4.1","787.3845","2.046567"
"4.12","789.6249","2.0564"
"4.14","791.8588","2.066333"
"4.16","794.1373","2.076633"
"4.18","796.3967","2.086633"
"4.2","798.765","2.0968"
"4.22","801.0856","2.1069"
"4.24","803.3737","2.116667"
"4.26","805.5242","2.126433"
"4.28","807.4578","2.136433"
"4.3","809.3635","2.146433"
"4.32","811.3027","2.156533"
"4.34","813.2664","2.1667"
"4.36","815.3113","2.1767"
"4.38","817.3688","2.1867"
"4.4","819.3088","2.1967"
"4.42","821.1764","2.206467"
"4.44","823.0456","2.216567"
"4.46","824.7034","2.226467"
"4.48","826.2873","2.2365"
"4.5","827.86","2.246733"
"4.52","829.4122","2.2568"
"4.54","830.9436","2.266867"
"4.56","832.3733","2.2769"
"4.58","833.7347","2.2868"
"4.6","834.9633","2.296567"
"4.62","836.0537","2.3062"
"4.64","837.0574","2.3163"
"4.66","838.0309","2.3266"
"4.68","838.1049","2.337433"
"4.7","727.1592","2.347533"
"4.72","265.5101","2.357"
"4.74","27.71219","2.3649"
"4.75","21.45131","2.3657"