File: degradation_testing/tensile_testing/Resin/Resin_Control/R-run-4.csv
"1 _ 1",,
"Time","Force","Stroke"
"sec","N","mm"
"0","0.1549721","0.0001"
"0.02","0.1613299","0.006"
"0.04","0.5094211","0.01576667"
"0.06","3.364881","0.02593333"
"0.08","10.66208","0.03626667"
"0.1","19.80225","0.04656667"
"0.12","28.99806","0.0567"
"0.14","37.72338","0.0667"
"0.16","45.59119","0.07666667"
"0.18","51.28304","0.0865"
"0.2","53.08151","0.09653334"
"0.22","53.53928","0.1063333"
"0.24","53.71094","0.1164667"
"0.26","53.75306","0.1266667"
"0.28","53.75068","0.1368"
"0.3","53.74591","0.1468667"
"0.32","53.74908","0.1569"
"0.34","53.7467","0.1667333"
"0.36","53.73557","0.1765333"
"0.38","53.73557","0.1862667"
"0.4","53.67041","0.1964333"
"0.42","53.63703","0.2066"
"0.44","53.61001","0.2166"
"0.46","53.59014","0.2268"
"0.48","53.57186","0.2369333"
"0.5","53.57504","0.2467667"
"0.52","53.56868","0.2564333"
"0.54","53.55914","0.2665667"
"0.56","53.57742","0.2764333"
"0.58","53.60842","0.2866"
"0.6","53.64577","0.2966667"
"0.62","53.67756","0.3069"
"0.64","53.71968","0.3168"
"0.66","53.78644","0.3267"
"0.68","53.82697","0.3366"
"0.7","53.86193","0.3465667"
"0.72","53.87624","0.3564667"
"0.74","53.86512","0.3665667"
"0.76","53.84843","0.3767333"
"0.78","53.86432","0.3867667"
"0.8","53.84843","0.3968667"
"0.82","53.88896","0.4068667"
"0.84","53.88737","0.4167"
"0.86","53.90882","0.4265667"
"0.88","54.02327","0.4365"
"0.9","54.52712","0.4464"
"0.92","56.73568","0.4565667"
"0.94","62.09294","0.4666333"
"0.96","68.70508","0.4769"
"0.98","74.19189","0.487"
"1","78.05506","0.4967333"
"1.02","82.34898","0.5064334"
"1.04","90.6674","0.5164"
"1.06","99.18372","0.5263"
"1.08","106.7209","0.5364"
"1.1","115.3111","0.5466334"
"1.12","124.5888","0.5568333"
"1.14","132.6211","0.5667334"
"1.16","141.4124","0.5766667"
"1.18","150.9444","0.5864667"
"1.2","159.0013","0.5964667"
"1.22","167.8395","0.6063333"
"1.24","176.4973","0.6164667"
"1.26","184.5463","0.6266"
"1.28","193.6237","0.6367"
"1.3","201.8952","0.6467667"
"1.32","210.2367","0.6568"
"1.34","218.8007","0.6666667"
"1.36","226.694","0.6765"
"1.38","235.041","0.6864333"
"1.4","242.9358","0.6964667"
"1.42","250.9149","0.7065667"
"1.44","259.0434","0.7166"
"1.46","266.7491","0.7268"
"1.48","274.7146","0.7369334"
"1.5","282.4044","0.7467"
"1.52","290.0132","0.7564334"
"1.54","297.482","0.7665"
"1.56","304.6044","0.7764"
"1.58","311.9373","0.7865334"
"1.6","319.1042","0.7967333"
"1.62","326.3648","0.8069"
"1.64","333.631","0.8168333"
"1.66","340.6715","0.8266667"
"1.68","347.7224","0.8364667"
"1.7","354.5197","0.8464333"
"1.72","361.2042","0.8563"
"1.74","367.8449","0.8664333"
"1.76","374.4841","0.8767334"
"1.78","381.194","0.8868334"
"1.8","387.8204","0.8968334"
"1.82","394.2927","0.9069"
"1.84","400.5059","0.9167"
"1.86","406.5021","0.9265333"
"1.88","412.1693","0.9365333"
"1.9","417.5536","0.9463333"
"1.92","422.8497","0.9566"
"1.94","428.2125","0.9666333"
"1.96","433.9083","0.9769"
"1.98","439.5755","0.987"
"2","445.0846","0.9967"
"2.02","450.3091","1.006467"
"2.04","454.971","1.016467"
"2.06","459.1807","1.026433"
"2.08","463.2465","1.036567"
"2.1","467.2019","1.046667"
"2.12","471.1278","1.056967"
"2.14","474.933","1.0667"
"2.16","478.5848","1.076633"
"2.18","481.867","1.0865"
"2.2","484.7447","1.096533"
"2.22","487.3443","1.106433"
"2.24","489.7888","1.116533"
"2.26","492.1412","1.126733"
"2.28","494.3792","1.1367"
"2.3","496.4797","1.1468"
"2.32","498.3608","1.156933"
"2.34","500.1601","1.1667"
"2.36","501.8973","1.176433"
"2.38","503.4558","1.1863"
"2.4","505.0834","1.196267"
"2.42","506.8159","1.206533"
"2.44","508.6168","1.2165"
"2.46","510.6425","1.226767"
"2.48","512.6985","1.236867"
"2.5","514.7847","1.2467"
"2.52","516.8629","1.256433"
"2.54","518.8227","1.266533"
"2.56","520.5146","1.2764"
"2.58","522.0668","1.2866"
"2.6","523.7333","1.2967"
"2.62","525.6216","1.306967"
"2.64","527.6044","1.316867"
"2.66","529.592","1.326733"
"2.68","531.4724","1.3365"
"2.7","533.2295","1.3465"
"2.72","534.9008","1.356367"
"2.74","536.6469","1.366467"
"2.76","538.4771","1.376733"
"2.78","540.4115","1.386767"
"2.8","542.4452","1.396867"
"2.82","544.4296","1.4068"
"2.84","546.2789","1.416667"
"2.86","547.905","1.426533"
"2.88","549.3911","1.436533"
"2.9","550.9854","1.446333"
"2.92","552.6844","1.456567"
"2.94","554.3494","1.466633"
"2.96","556.256","1.4768"
"2.98","558.2762","1.486933"
"3","560.2559","1.4967"
"3.02","562.2085","1.506467"
"3.04","563.9958","1.516567"
"3.06","565.7355","1.526467"
"3.08","567.5594","1.536633"
"3.1","569.3849","1.546767"
"3.12","571.324","1.557"
"3.14","573.3235","1.566733"
"3.16","575.3192","1.5767"
"3.18","577.2877","1.586533"
"3.2","579.2849","1.596533"
"3.22","581.2534","1.606467"
"3.24","583.2672","1.616567"
"3.26","585.3494","1.626667"
"3.28","587.4363","1.6367"
"3.3","589.5654","1.646767"
"3.32","591.6802","1.6569"
"3.34","593.8101","1.666733"
"3.36","595.932","1.676567"
"3.38","597.9315","1.686367"
"3.4","599.978","1.696267"
"3.42","602.0737","1.7065"
"3.44","604.2361","1.7165"
"3.46","606.6266","1.726767"
"3.48","609.0435","1.736833"
"3.5","611.426","1.7467"
"3.52","613.7387","1.756433"
"3.54","615.9321","1.766567"
"3.56","618.0747","1.776433"
"3.58","620.3556","1.7865"
"3.6","622.6841","1.7967"
"3.62","625.1844","1.806933"
"3.64","627.8721","1.816733"
"3.66","630.5766","1.826533"
"3.68","633.165","1.836433"
"3.7","635.7217","1.8465"
"3.72","638.3173","1.856367"
"3.74","640.9033","1.866467"
"3.76","643.4933","1.8767"
"3.78","646.1795","1.8867"
"3.8","648.9531","1.8968"
"3.82","651.6616","1.9068"
"3.84","654.3867","1.9167"
"3.86","657.0729","1.9266"
"3.88","659.6454","1.936467"
"3.9","662.2338","1.9464"
"3.92","664.858","1.956567"
"3.94","667.4703","1.966633"
"3.96","670.2089","1.976867"
"3.98","672.9308","1.987033"
"4","675.6369","1.996733"
"4.02","678.281","2.0064"
"4.04","680.7462","2.0165"
"4.06","683.2012","2.0264"
"4.08","685.819","2.0366"
"4.1","688.5473","2.046667"
"4.12","691.456","2.056967"
"4.14","694.4148","2.0667"
"4.16","697.2599","2.076633"
"4.18","699.8651","2.086533"
"4.2","702.4542","2.096567"
"4.22","705.0268","2.1064"
"4.24","707.5953","2.116467"
"4.26","710.1743","2.126667"
"4.28","712.8159","2.136767"
"4.3","715.5204","2.146833"
"4.32","718.2217","2.156967"
"4.34","720.8792","2.166867"
"4.36","723.4565","2.176667"
"4.38","725.8447","2.186367"
"4.4","728.1566","2.196333"
"4.42","730.4708","2.206533"
"4.44","732.8709","2.2166"
"4.46","735.4736","2.226833"
"4.48","738.0684","2.236967"
"4.5","740.6259","2.2467"
"4.52","743.1237","2.2564"
"4.54","745.4165","2.2665"
"4.56","747.6052","2.2764"
"4.58","749.9131","2.286567"
"4.6","752.2384","2.296767"
"4.62","754.683","2.306833"
"4.64","757.1403","2.3167"
"4.66","759.4967","2.326667"
"4.68","761.8205","2.3365"
"4.7","764.1522","2.346433"
"4.72","766.3695","2.356367"
"4.74","768.5192","2.366433"
"4.76","770.7015","2.376633"
"4.78","772.9181","2.3867"
"4.8","775.1512","2.396833"
"4.82","777.3161","2.406833"
"4.84","779.4571","2.4167"
"4.86","781.4868","2.426533"
"4.88","783.3647","2.436433"
"4.9","785.2745","2.446367"
"4.92","787.2319","2.4565"
"4.94","789.1719","2.466533"
"4.96","791.1921","2.476833"
"4.98","793.2401","2.4871"
"5","795.3096","2.4967"
"5.02","797.2654","2.5064"
"5.04","798.9407","2.516567"
"5.06","799.7521","2.5272"
"5.08","699.0512","2.537267"
"5.1","262.4067","2.546867"
"5.12","28.86931","2.556833"
"5.14","21.84232","2.5596"